timestampMs,poorSignal,eegRawValue,eegRawValueVolts,attention,meditation,blinkStrength,delta,theta,alphaLow,alphaHigh,betaLow,betaHigh,gammaLow,gammaMid,tagEvent,location
1.56663E+12,25,17,3.74E-06,0,0,110,51,5,1,1,1,1,1,1,Tag0,unknown
1.56663E+12,25,-118,-2.59E-05,0,0,45,142367,81799,16747092,9984,14201,9063,3471,6511,Tag0,unknown
1.56663E+12,0,60,1.32E-05,0,0,45,73504,16758643,22750,10195,6779,3758,2306,1086,Tag0,unknown
1.56663E+12,0,-171,-3.76E-05,0,0,50,57840,33238,37796,16909,17925,18353,4063,8279,Tag0,unknown
1.56663E+12,0,120,2.64E-05,0,0,50,684499,18929,22872,11074,10617,4641,6782,2306,Tag0,unknown
1.56663E+12,0,41,9.01E-06,54,30,47,424810,98580,16746025,11409,11757,28285,9674,2703,Tag0,unknown
1.56663E+12,0,32,7.03E-06,78,30,47,18272,11707,4542,9605,10744,11444,11958,8761,Tag0,unknown
1.56663E+12,0,36,7.91E-06,84,13,47,16758461,65691,9035,761,4041,13157,1335,1616,Tag0,unknown
1.56663E+12,0,68,1.49E-05,94,23,47,3918,21620,16118,12642,4810,10480,6930,2045,Tag0,unknown
1.56663E+12,0,-84,-1.85E-05,94,21,47,527393,97219,5043,22957,7888,16746007,13506,8832,Tag0,unknown
1.56663E+12,0,1188,2.61E-04,69,27,47,1216767,153097,67505,87920,16755283,28959,17350,9505,Tag0,unknown
1.56663E+12,0,-301,-6.61E-05,56,44,47,879312,22290,3473,5649,2640,2134,1103,138,Tag0,unknown
1.56663E+12,0,101,2.22E-05,51,43,47,2220666,275194,153592,98041,16751190,95261,23106,8589,Tag0,unknown
1.56663E+12,0,97,2.13E-05,17,47,47,687323,142023,16746088,5948,20994,4927,9413,4142,Tag0,unknown
1.56663E+12,0,-134,-2.94E-05,26,41,47,1911094,108287,16772912,142108,133768,16764521,28939,16748152,Tag0,unknown
1.56663E+12,0,35,7.69E-06,14,30,90,1104407,204670,26172,14273,7222,6453,9378,6547,Tag0,unknown
1.56663E+12,0,77,1.69E-05,7,17,43,57028,16768168,8435,10411,7192,5938,4963,2152,Tag0,unknown
1.56663E+12,0,-893,-1.96E-04,16,26,58,281180,485378,82360,133441,65446,16746806,19106,16889,Tag0,unknown
1.56663E+12,0,-274,-6.02E-05,1,3,95,471980,16770745,3030,2712,1384,2202,1766,484,Tag0,unknown
1.56663E+12,26,-199,-4.37E-05,1,3,95,1327572,14118,5770,12828,3711,2274,1856,1075,Tag0,unknown
1.56663E+12,0,52,1.14E-05,3,26,95,610748,70239,16753531,19743,11248,6474,2603,1231,Tag0,unknown
1.56663E+12,0,18,3.96E-06,23,27,95,3213,16754567,3675,14529,2642,17292,4847,7345,Tag0,unknown
1.56663E+12,0,-361,-7.93E-05,21,41,95,490408,299909,254307,16775060,16747717,16746954,21689,9884,Tag0,unknown
1.56663E+12,0,52,1.14E-05,43,57,46,1028732,16744920,10486,2980,2491,6699,4084,1949,Tag0,unknown
1.56663E+12,0,51,1.12E-05,77,30,46,10919,22773,1024,5286,17858,13875,7724,5734,Tag0,unknown
1.56663E+12,0,90,1.98E-05,63,23,46,513934,71910,5642,10024,9241,8964,14018,3345,Tag0,unknown
1.56663E+12,0,-127,-2.79E-05,57,1,41,104483,508014,16750057,16747734,15449,20748,5806,4453,Tag0,unknown
1.56663E+12,0,25,5.49E-06,30,8,41,283973,74467,25663,28040,1419,1716,3980,1757,Tag0,unknown
1.56663E+12,0,273,6.00E-05,8,30,41,809684,118189,16768502,97852,27371,23576,8995,6383,Tag0,unknown
1.56663E+12,0,-298,-6.55E-05,1,50,46,1678483,399062,220048,29355,13949,14839,27897,9567,Tag0,unknown
1.56663E+12,0,-177,-3.89E-05,1,54,46,320936,212897,22757,18813,13732,7959,16935,3769,Tag0,unknown
1.56663E+12,0,65,1.43E-05,20,60,46,201011,16759811,75457,9049,25534,12799,4073,2992,Tag0,unknown
1.56663E+12,0,20,4.39E-06,23,51,40,1333624,262878,16750242,84716,16767728,31628,27267,8011,Tag0,unknown
1.56663E+12,0,-266,-5.84E-05,37,54,40,425880,131349,16745253,80878,15759,17287,11685,3859,Tag0,unknown
1.56663E+12,0,35,7.69E-06,43,80,44,309761,16753397,16753416,12903,9795,4928,6162,3356,Tag0,unknown
1.56663E+12,0,-333,-7.32E-05,30,51,60,1238873,1550113,100736,83358,92966,68495,42878,31421,Tag0,unknown
1.56663E+12,0,83,1.82E-05,21,54,38,357542,100074,66132,25130,10747,10380,8656,10651,Tag0,unknown
1.56663E+12,0,97,2.13E-05,23,54,38,210232,22353,12768,4084,2975,2772,1311,988,Tag0,unknown
1.56663E+12,0,104,2.29E-05,27,50,38,823533,21158,14538,3513,3238,2770,4811,2329,Tag0,unknown
1.56663E+12,0,-44,-9.67E-06,40,64,45,59780,31384,10453,6027,3952,4102,3530,1900,Tag0,unknown
1.56663E+12,0,-111,-2.44E-05,44,41,45,1589305,537852,22955,11720,16756197,31830,14347,4854,Tag0,unknown
1.56663E+12,0,10,2.20E-06,38,30,49,859629,126485,21432,27535,15405,12142,14937,4522,Tag0,unknown
1.56663E+12,0,72,1.58E-05,44,26,58,533342,85309,16747953,20483,29841,17596,16083,5916,Tag0,unknown
1.56663E+12,0,-381,-8.37E-05,54,24,45,1928154,499348,61912,46736,40594,110268,163943,19960,Tag0,unknown
1.56663E+12,0,55,1.21E-05,47,43,45,1692014,278380,16776631,18990,20182,10234,7447,4395,Tag0,unknown
1.56663E+12,0,72,1.58E-05,50,56,35,23423,79753,16757268,18319,6727,9928,13252,8641,Tag0,unknown
1.56663E+12,0,25,5.49E-06,51,48,46,613614,623639,52561,16753562,44345,45568,16753199,17325,Tag0,unknown
1.56663E+12,0,-69,-1.52E-05,48,50,38,624044,156481,16771613,17752,28657,16750532,28722,8006,Tag0,unknown
1.56663E+12,0,113,2.48E-05,63,30,79,262725,33166,800,3632,5979,8224,3504,1365,Tag0,unknown
1.56663E+12,0,56,1.23E-05,63,16,79,288282,211808,16746735,7635,28690,18238,11410,2896,Tag0,unknown
1.56663E+12,0,24,5.27E-06,61,17,42,744019,114527,16754272,9390,16767469,29055,19993,10817,Tag0,unknown
1.56663E+12,0,60,1.32E-05,43,1,58,1190551,147492,2846,7497,4849,5716,2464,1398,Tag0,unknown
1.56663E+12,0,85,1.87E-05,63,35,39,12172,3239,13168,8890,6534,17240,7207,3675,Tag0,unknown
1.56663E+12,0,102,2.24E-05,63,35,41,12172,3239,13168,8890,6534,17240,7207,3675,Tag0,unknown
1.56663E+12,0,90,1.98E-05,64,30,45,744640,127452,1970,32009,16763190,21417,12620,10359,Tag0,unknown
1.56663E+12,0,2,4.39E-07,56,56,44,133589,4407,15392,2289,3397,1415,8541,182,Tag0,unknown
1.56663E+12,0,98,2.15E-05,75,69,44,49392,16771746,9838,15151,29140,22070,12656,4153,Tag0,unknown
1.56663E+12,0,38,8.35E-06,63,54,44,7176,27925,5420,4687,14123,9479,10127,4431,Tag0,unknown
1.56663E+12,0,57,1.25E-05,60,57,39,227790,16767448,6745,4735,3214,4676,5780,2670,Tag0,unknown
timestampMs,poorSignal,eegRawValue,eegRawValueVolts,attention,meditation,blinkStrength,delta,theta,alphaLow,alphaHigh,betaLow,betaHigh,gammaLow,gammaMid,tagEvent,location
1.56778E+12,25,43,9.45E-06,0,0,35,15,3,0,0,0,0,1,0,Tag0,unknown
1.56778E+12,25,16,3.52E-06,0,0,35,1046,492,197,16777191,82,98,18,6,Tag0,unknown
1.56778E+12,25,22,4.83E-06,0,0,35,45453,87079,21926,8630,10841,7218,6575,7715,Tag0,unknown
1.56778E+12,25,-269,-5.91E-05,0,0,35,45453,87079,21926,8630,10841,7218,6575,7715,Tag0,unknown
1.56778E+12,0,34,7.47E-06,0,0,44,396027,50970,26038,22885,12398,6259,3004,3454,Tag0,unknown
1.56778E+12,0,-344,-7.56E-05,0,0,44,396027,50970,26038,22885,12398,6259,3004,3454,Tag0,unknown
1.56778E+12,0,36,7.91E-06,0,0,45,16759202,8841,5776,2965,1800,5334,1418,1288,Tag0,unknown
1.56778E+12,0,-197,-4.33E-05,47,14,45,16758575,16770202,4052,7442,10084,3638,2137,1333,Tag0,unknown
1.56778E+12,0,-326,-7.16E-05,47,14,34,16758575,16770202,4052,7442,10084,3638,2137,1333,Tag0,unknown
1.56778E+12,0,121,2.66E-05,47,35,45,752503,16766559,18236,16746448,12427,10313,12286,7916,Tag0,unknown
1.56778E+12,0,-373,-8.20E-05,24,24,45,1051664,126182,16760469,28876,29605,20685,8718,10981,Tag0,unknown
1.56778E+12,0,1,2.20E-07,26,43,36,159974,22166,1482,6728,1450,1787,2278,882,Tag0,unknown
1.56778E+12,0,-109,-2.40E-05,17,4,41,2247377,533243,16744587,18016,13915,19730,10264,10694,Tag0,unknown
1.56778E+12,0,-261,-5.73E-05,21,35,43,66990,14797,2821,4922,2711,1528,426,253,Tag0,unknown
1.56778E+12,0,73,1.60E-05,35,35,43,161896,16282,2879,3986,2332,9220,4481,529,Tag0,unknown
1.56778E+12,0,-358,-7.87E-05,44,47,43,16700,24333,13596,8094,4889,9381,4717,5271,Tag0,unknown
1.56778E+12,0,72,1.58E-05,67,77,54,9913,18827,17979,10008,17146,28144,6183,6245,Tag0,unknown
1.56778E+12,0,37,8.13E-06,70,77,54,41212,29778,16063,6897,18154,5983,9531,2853,Tag0,unknown
1.56778E+12,0,7,1.54E-06,66,75,54,53096,17668,1618,3319,1365,5234,6804,2965,Tag0,unknown
1.56778E+12,0,32,7.03E-06,63,57,54,16745461,16751480,14799,4588,16748969,7723,14787,1324,Tag0,unknown
1.56778E+12,0,7,1.54E-06,57,61,54,96920,16763761,16756408,5594,16725,16744481,9685,6511,Tag0,unknown
1.56778E+12,0,38,8.35E-06,63,63,54,24916,24427,9274,9886,10869,7389,7897,1522,Tag0,unknown
1.56778E+12,0,-269,-5.91E-05,64,81,54,25839,20901,7357,19429,6716,13413,6075,4011,Tag0,unknown
1.56778E+12,0,45,9.89E-06,48,100,39,1425262,817780,578884,88133,51875,25279,31151,7479,Tag0,unknown
1.56778E+12,0,-93,-2.04E-05,34,100,39,862064,40835,83538,88554,16766828,14156,6892,4092,Tag0,unknown
1.56778E+12,0,18,3.96E-06,23,100,39,596381,30969,23367,13904,4459,3729,7976,4497,Tag0,unknown
1.56778E+12,0,124,2.72E-05,7,100,41,537614,498826,152000,31772,16753298,25455,17425,11933,Tag0,unknown
1.56778E+12,0,98,2.15E-05,11,100,38,1001360,647714,275838,151566,16753559,16751951,58795,16765457,Tag0,unknown
1.56778E+12,0,71,1.56E-05,11,88,42,266051,200130,16768717,16754744,11991,16124,5248,7594,Tag0,unknown
1.56778E+12,0,66,1.45E-05,13,67,42,1504990,396530,41258,16759529,25357,16748580,76150,11705,Tag0,unknown
1.56778E+12,0,103,2.26E-05,35,47,42,16776458,16769749,1803,4715,7326,16745536,22232,11480,Tag0,unknown
1.56778E+12,0,50,1.10E-05,50,57,42,300353,2604,15975,6142,1176,5230,9983,699,Tag0,unknown
1.56778E+12,0,80,1.76E-05,57,44,42,37975,32616,6305,1808,2295,6472,2919,911,Tag0,unknown
1.56778E+12,0,72,1.58E-05,74,44,42,10769,24145,9164,17936,15570,23708,11477,2016,Tag0,unknown
1.56778E+12,0,-362,-7.95E-05,63,60,38,156752,106454,28455,17583,18975,16744608,25327,28004,Tag0,unknown
1.56778E+12,0,28,6.15E-06,50,43,43,2274053,250858,99724,26815,31758,21478,32297,7675,Tag0,unknown
1.56778E+12,0,40,8.79E-06,57,50,41,73917,16776910,19614,23558,7586,16755956,16625,4911,Tag0,unknown
1.56778E+12,0,8,1.76E-06,51,50,45,707113,87423,18912,16751929,27380,25807,20205,5823,Tag0,unknown
1.56778E+12,0,51,1.12E-05,53,56,40,463386,16767057,21100,12838,22012,16347,13379,2986,Tag0,unknown
1.56778E+12,0,84,1.85E-05,74,48,40,16776668,5600,2483,1494,5556,5632,3419,1366,Tag0,unknown
1.56778E+12,0,44,9.67E-06,77,54,40,19732,14381,5915,15567,4285,17567,16744664,6875,Tag0,unknown
1.56778E+12,0,99,2.18E-05,77,47,40,175374,16767682,9458,7103,9542,15049,24146,10985,Tag0,unknown
1.56778E+12,0,34,7.47E-06,84,48,40,29378,12602,10575,10104,15940,17438,10675,3564,Tag0,unknown
1.56778E+12,0,91,2.00E-05,78,44,40,7028,16753912,7416,4226,5726,13812,5905,6559,Tag0,unknown
1.56778E+12,0,21,4.61E-06,80,41,34,21781,9330,6355,9947,10237,17298,6781,4107,Tag0,unknown
1.56778E+12,0,-260,-5.71E-05,83,54,34,147955,6033,5884,2364,2144,4118,6492,831,Tag0,unknown
1.56778E+12,0,-285,-6.26E-05,77,61,34,308984,16745391,16747952,18971,16722,17026,6399,1794,Tag0,unknown
1.56778E+12,0,39,8.57E-06,77,69,34,88299,16751852,18994,10176,16822,18322,7143,6718,Tag0,unknown
1.56778E+12,0,33,7.25E-06,67,69,41,16760163,13880,8211,407,1671,4959,2139,1012,Tag0,unknown
1.56778E+12,0,59,1.30E-05,67,67,41,665817,28059,22958,10525,14153,18761,12041,6095,Tag0,unknown
1.56778E+12,0,75,1.65E-05,75,56,41,2463,28388,5179,13357,8991,24182,8078,9300,Tag0,unknown
1.56778E+12,0,38,8.35E-06,90,51,41,3743,2566,1670,9876,9806,28401,11288,16379,Tag0,unknown
1.56778E+12,0,27,5.93E-06,88,51,47,16772663,28301,14923,2402,5109,7373,3410,1925,Tag0,unknown
1.56778E+12,0,39,8.57E-06,93,43,47,17458,20109,2169,13768,12403,20375,30303,6362,Tag0,unknown
1.56778E+12,0,19,4.17E-06,96,35,47,4822,18692,232,7332,18972,18606,5622,4630,Tag0,unknown
1.56778E+12,0,-305,-6.70E-05,83,40,47,7850,31403,23581,4653,10943,24130,10545,2501,Tag0,unknown
1.56778E+12,0,44,9.67E-06,94,30,44,135795,16745063,890,19228,12814,16747200,17333,10302,Tag0,unknown
1.56778E+12,0,57,1.25E-05,84,30,44,610127,16747519,11626,10132,19662,9695,27123,9102,Tag0,unknown
1.56778E+12,0,41,9.01E-06,66,51,44,96016,54943,47228,6406,16205,19599,16143,11048,Tag0,unknown
timestampMs,poorSignal,eegRawValue,eegRawValueVolts,attention,meditation,blinkStrength,delta,theta,alphaLow,alphaHigh,betaLow,betaHigh,gammaLow,gammaMid,tagEvent,location
1.56778E+12,51,43,9.45E-06,64,56,34,256073,98185,23335,48699,66997,16776027,16776222,23811,Tag0,unknown
1.56778E+12,25,41,9.01E-06,0,0,34,19,1,0,1,0,0,1,3,Tag0,unknown
1.56778E+12,25,12,2.64E-06,0,0,45,1080,126,44,12,6,17,15,8,Tag0,unknown
1.56778E+12,0,25,5.49E-06,0,0,45,86279,18073,8941,16187,13049,9899,11716,3441,Tag0,unknown
1.56778E+12,0,12,2.64E-06,0,0,45,86279,18073,8941,16187,13049,9899,11716,3441,Tag0,unknown
1.56778E+12,0,34,7.47E-06,0,0,38,62786,33994,31306,26623,7599,12789,4310,6213,Tag0,unknown
1.56778E+12,0,10,2.20E-06,41,53,38,16744945,22718,20607,14261,3126,15992,4940,3098,Tag0,unknown
1.56778E+12,0,51,1.12E-05,43,56,38,52935,10294,8127,3234,10139,4326,6834,3139,Tag0,unknown
1.56778E+12,0,69,1.52E-05,38,38,38,43494,25408,328,4619,4984,3523,2719,2403,Tag0,unknown
1.56778E+12,0,85,1.87E-05,37,30,38,251078,140336,17108,16745097,15977,28971,6059,3809,Tag0,unknown
1.56778E+12,0,13,2.86E-06,38,21,38,12510,14092,5945,8621,8559,9531,4045,2335,Tag0,unknown
1.56778E+12,0,100,2.20E-05,47,29,38,11706,8646,2980,20629,10682,16181,10959,4820,Tag0,unknown
1.56778E+12,0,115,2.53E-05,48,63,38,16760464,24648,11545,21045,6098,7646,7937,4501,Tag0,unknown
1.56778E+12,0,59,1.30E-05,40,91,38,628865,16769599,77632,16772210,11050,14150,8918,19597,Tag0,unknown
1.56778E+12,0,98,2.15E-05,35,74,38,71389,20185,1636,3421,5787,4126,3238,1064,Tag0,unknown
1.56778E+12,0,37,8.13E-06,16,43,38,1157095,396672,15983,31034,12405,27076,9413,5800,Tag0,unknown
1.56778E+12,0,98,2.15E-05,11,20,39,249068,23779,3634,1530,1558,2269,4743,1622,Tag0,unknown
1.56778E+12,0,25,5.49E-06,20,1,39,1550570,177791,16772964,94698,16754313,70385,16745120,29471,Tag0,unknown
1.56778E+12,0,-258,-5.67E-05,20,1,39,1550570,177791,16772964,94698,16754313,70385,16745120,29471,Tag0,unknown
1.56778E+12,0,61,1.34E-05,47,34,39,29689,10452,10024,9508,7482,28014,15542,5738,Tag0,unknown
1.56778E+12,0,66,1.45E-05,60,53,39,16747048,5618,14232,11413,18565,10340,9511,7310,Tag0,unknown
1.56778E+12,0,28,6.15E-06,61,69,39,12411,13383,16745969,19621,5192,16020,10320,5650,Tag0,unknown
1.56778E+12,0,48,1.05E-05,50,67,62,33134,16757887,1738,10465,2172,3720,5039,1975,Tag0,unknown
1.56778E+12,0,59,1.30E-05,47,56,62,32955,21190,3433,9061,20334,22523,15102,5571,Tag0,unknown
1.56778E+12,0,-298,-6.55E-05,51,50,62,463611,17443,14107,6820,8278,20732,9604,8159,Tag0,unknown
1.56778E+12,0,34,7.47E-06,61,23,62,17921,16756,1918,8402,7712,18121,10142,7770,Tag0,unknown
1.56778E+12,0,87,1.91E-05,67,47,62,16749409,3415,8147,3418,3647,2108,2930,504,Tag0,unknown
1.56778E+12,0,98,2.15E-05,67,64,62,10119,7303,1257,13975,5027,15132,11708,2426,Tag0,unknown
1.56778E+12,0,77,1.69E-05,78,43,62,13366,8731,2941,1784,13423,18955,11964,2371,Tag0,unknown
1.56778E+12,0,74,1.63E-05,75,57,62,9097,6514,7978,5703,6620,8474,7917,4012,Tag0,unknown
1.56778E+12,0,-117,-2.57E-05,78,44,54,23959,16746031,16724,13578,7347,14859,12651,3049,Tag0,unknown
1.56778E+12,0,-273,-6.00E-05,69,38,54,2128085,168010,16754635,91055,16744885,93809,20836,17534,Tag0,unknown
1.56778E+12,0,104,2.29E-05,41,44,54,94965,16771399,5640,8229,1246,4822,3594,2280,Tag0,unknown
1.56778E+12,0,20,4.39E-06,48,21,54,151618,22690,4348,4546,21568,28908,10002,4399,Tag0,unknown
1.56778E+12,0,-312,-6.86E-05,43,17,42,226000,29601,12560,3423,742,6087,7055,1539,Tag0,unknown
1.56778E+12,0,-267,-5.87E-05,43,24,42,54915,23885,29673,15749,16747284,18597,6260,6272,Tag0,unknown
1.56778E+12,0,40,8.79E-06,44,35,59,209108,58713,16745301,20458,20023,13837,18071,4097,Tag0,unknown
1.56778E+12,0,9,1.98E-06,34,44,59,92141,16753993,3148,19861,21035,20022,8038,2362,Tag0,unknown
1.56778E+12,0,80,1.76E-05,38,51,59,14769,9024,7879,4586,5779,4558,13216,1001,Tag0,unknown
1.56778E+12,0,12,2.64E-06,40,43,59,19429,32334,10132,11532,9020,17462,7642,8600,Tag0,unknown
1.56778E+12,0,85,1.87E-05,47,48,62,2272874,87376,16769016,8659,26842,22445,12959,7284,Tag0,unknown
1.56778E+12,0,102,2.24E-05,47,53,62,65810,7813,4362,3289,8022,4612,778,752,Tag0,unknown
1.56778E+12,0,65,1.43E-05,48,50,62,12870,18452,1918,16453,7979,9648,7822,4244,Tag0,unknown
1.56778E+12,0,4,8.79E-07,48,51,62,12456,9421,6109,1643,4431,6407,17441,5193,Tag0,unknown
1.56778E+12,0,-291,-6.39E-05,53,51,62,12071,9660,3828,8233,7974,5342,6654,2422,Tag0,unknown
1.56778E+12,0,44,9.67E-06,54,38,62,98268,73221,12736,5194,13373,32030,25349,3427,Tag0,unknown
1.56778E+12,0,36,7.91E-06,56,37,44,110453,16773279,28676,27148,19606,16748958,16748701,21312,Tag0,unknown
1.56778E+12,0,98,2.15E-05,50,29,44,1072256,91002,18821,10888,16554,17458,21999,6528,Tag0,unknown
1.56778E+12,0,22,4.83E-06,57,29,44,6549,6458,6286,11774,9752,15977,6264,8996,Tag0,unknown
1.56778E+12,0,66,1.45E-05,56,47,44,18668,22032,6822,9539,8910,12518,4802,1378,Tag0,unknown
1.56778E+12,0,102,2.24E-05,57,44,44,6070,22114,11224,13631,20422,15571,8033,3821,Tag0,unknown
1.56778E+12,0,65,1.43E-05,61,37,44,17878,65549,7860,4871,12034,17378,7697,6302,Tag0,unknown
1.56778E+12,0,80,1.76E-05,60,29,44,2450,11966,10325,3599,9861,12735,20913,3796,Tag0,unknown
1.56778E+12,0,56,1.23E-05,56,38,44,31612,18967,12870,12431,6852,8225,8906,1667,Tag0,unknown
1.56778E+12,0,56,1.23E-05,38,43,37,16749224,12582,1871,10342,6091,968,1355,1395,Tag0,unknown
1.56778E+12,0,17,3.74E-06,41,56,37,319416,18244,6808,4305,6962,10430,25056,2528,Tag0,unknown
1.56778E+12,0,-267,-5.87E-05,38,57,37,16760883,26923,4336,21844,8398,20454,7166,6329,Tag0,unknown
1.56778E+12,0,39,8.57E-06,38,64,37,16745933,21789,13741,32119,4956,14942,7864,3959,Tag0,unknown
1.56778E+12,0,-100,-2.20E-05,74,47,37,14647,5728,3488,1654,6358,18586,10851,1862,Tag0,unknown
timestampMs,poorSignal,eegRawValue,eegRawValueVolts,attention,meditation,blinkStrength,delta,theta,alphaLow,alphaHigh,betaLow,betaHigh,gammaLow,gammaMid,tagEvent,location
1.56778E+12,0,43,9.45E-06,77,47,56,93841,18850,13500,2827,3610,3755,1783,1464,Tag0,unknown
1.56778E+12,25,51,1.12E-05,0,0,56,28,0,0,0,0,1,1,0,Tag0,unknown
1.56778E+12,25,121,2.66E-05,0,0,56,1205,1631,120,116,39,39,20,7,Tag0,unknown
1.56778E+12,0,-295,-6.48E-05,0,0,36,145700,163607,16755951,16771474,28891,14865,11002,7918,Tag0,unknown
1.56778E+12,0,97,2.13E-05,0,0,36,49048,247595,8943,5559,13258,3949,4711,2206,Tag0,unknown
1.56778E+12,0,121,2.66E-05,40,51,39,159890,29444,26727,2744,4157,2145,1823,1800,Tag0,unknown
1.56778E+12,0,-258,-5.67E-05,40,51,39,159890,29444,26727,2744,4157,2145,1823,1800,Tag0,unknown
1.56778E+12,0,64,1.41E-05,43,54,44,2738968,259268,26603,13377,16750556,14960,15381,13778,Tag0,unknown
1.56778E+12,0,41,9.01E-06,50,51,44,255538,24998,1500,917,1030,2749,1882,624,Tag0,unknown
1.56778E+12,0,32,7.03E-06,53,47,44,794550,107838,16774122,19244,11210,14487,12661,6222,Tag0,unknown
1.56778E+12,0,87,1.91E-05,53,44,39,1442060,170672,12122,16762313,16768609,20268,14585,15560,Tag0,unknown
1.56778E+12,0,23,5.05E-06,56,60,40,588833,16754043,16745622,14441,7256,7013,6473,3729,Tag0,unknown
1.56778E+12,0,36,7.91E-06,54,70,40,1503569,541625,183962,16773649,16749167,69367,65356,16752824,Tag0,unknown
1.56778E+12,0,-289,-6.35E-05,60,69,40,579303,340728,16745424,80603,23462,16753125,17113,9206,Tag0,unknown
1.56778E+12,0,-526,-1.16E-04,57,81,41,947131,16757223,16766902,24725,10554,6147,5552,3429,Tag0,unknown
1.56778E+12,0,-338,-7.43E-05,64,64,40,22867,16799,166,1282,746,3551,1022,1821,Tag0,unknown
1.56778E+12,0,76,1.67E-05,63,56,38,815255,41374,12872,4727,9324,9204,6381,1660,Tag0,unknown
1.56778E+12,0,-322,-7.08E-05,74,56,34,294081,148821,29261,16765444,28533,91811,31090,18517,Tag0,unknown
1.56778E+12,0,-120,-2.64E-05,78,48,34,48255,18053,2992,4131,1278,2186,2722,459,Tag0,unknown
1.56778E+12,0,77,1.69E-05,74,57,34,134029,16752061,19120,2314,8042,5546,4950,1332,Tag0,unknown
1.56778E+12,0,-312,-6.86E-05,66,53,46,335027,413830,5257,22995,25942,14892,10332,9230,Tag0,unknown
1.56778E+12,0,49,1.08E-05,64,57,44,41575,4253,2394,1420,704,2151,1753,1082,Tag0,unknown
1.56778E+12,0,-142,-3.12E-05,61,60,55,135490,16745690,14793,2605,2503,3706,3268,1253,Tag0,unknown
1.56778E+12,0,-362,-7.95E-05,60,63,55,550897,136225,73019,16744920,11274,14396,12245,16891,Tag0,unknown
1.56778E+12,0,64,1.41E-05,60,69,55,1273785,239606,4523,16758225,31251,10627,13396,3953,Tag0,unknown
1.56778E+12,0,121,2.66E-05,51,70,55,13292,35018,30202,83443,16751490,17996,6544,7943,Tag0,unknown
1.56778E+12,0,40,8.79E-06,60,70,55,14223,16754939,22268,13755,15969,21374,20414,5786,Tag0,unknown
1.56778E+12,0,74,1.63E-05,67,69,55,69464,23631,13744,12809,12700,9374,4822,4127,Tag0,unknown
1.56778E+12,0,4,8.79E-07,88,77,55,94242,6959,950,3845,710,5228,1776,740,Tag0,unknown
1.56778E+12,0,21,4.61E-06,84,67,55,457198,224894,16754351,6279,13141,17852,17142,11473,Tag0,unknown
1.56778E+12,0,-107,-2.35E-05,81,61,55,484620,16765007,2947,14988,28634,11941,8678,17614,Tag0,unknown
1.56778E+12,0,-276,-6.06E-05,83,61,55,50224,28436,16421,17021,19566,15099,13915,1690,Tag0,unknown
1.56778E+12,0,120,2.64E-05,67,57,38,54474,16752846,11015,1881,3769,3142,2159,452,Tag0,unknown
1.56778E+12,0,93,2.04E-05,80,60,38,16749739,16752749,16777151,15171,9005,16016,8533,3515,Tag0,unknown
1.56778E+12,0,-123,-2.70E-05,81,67,38,63154,30314,16745940,9015,14570,16156,9634,8178,Tag0,unknown
1.56778E+12,0,116,2.55E-05,69,57,43,166669,65623,5273,3227,1416,3284,2411,1898,Tag0,unknown
1.56778E+12,0,108,2.37E-05,78,56,43,26285,16775177,9083,7135,19746,12994,12856,6723,Tag0,unknown
1.56778E+12,0,115,2.53E-05,77,66,43,23787,13717,13300,16361,6766,10062,6519,2286,Tag0,unknown
1.56778E+12,0,75,1.65E-05,69,57,43,243213,16776078,14261,5432,3954,6876,3637,1808,Tag0,unknown
1.56778E+12,0,37,8.13E-06,88,69,43,19020,3436,8977,2847,3679,9210,8387,2197,Tag0,unknown
1.56778E+12,0,107,2.35E-05,93,78,43,23588,11651,3191,13960,7082,10086,11257,12704,Tag0,unknown
1.56778E+12,0,41,9.01E-06,81,70,58,797817,16765757,19277,5474,13744,4451,4190,1052,Tag0,unknown
1.56778E+12,0,39,8.57E-06,84,75,40,1101274,179333,84544,16758957,71227,16758379,31520,16756149,Tag0,unknown
1.56778E+12,0,87,1.91E-05,60,66,47,1416874,679101,90576,16764105,27137,17829,25099,13916,Tag0,unknown
1.56778E+12,0,42,9.23E-06,48,56,47,300823,93393,12493,5669,18456,6122,18014,4807,Tag0,unknown
1.56778E+12,0,55,1.21E-05,56,56,47,68879,16759678,15460,13576,6349,17462,7256,3197,Tag0,unknown
1.56778E+12,0,74,1.63E-05,74,53,47,16758148,9359,5752,2847,9987,20073,12422,2556,Tag0,unknown
1.56778E+12,0,86,1.89E-05,80,48,47,371376,115108,11872,11738,6614,13394,14112,1722,Tag0,unknown
1.56778E+12,0,12,2.64E-06,80,56,47,73896,24982,13262,3529,3410,1961,1645,1504,Tag0,unknown
1.56778E+12,0,58,1.27E-05,81,57,47,16769747,21076,15257,8489,7343,12743,9062,28820,Tag0,unknown
1.56778E+12,0,51,1.12E-05,78,61,47,79799,6641,4208,8429,16144,13529,5210,3724,Tag0,unknown
1.56778E+12,0,43,9.45E-06,87,66,47,16748459,32509,6112,5140,10594,10739,8043,1835,Tag0,unknown
1.56778E+12,0,22,4.83E-06,100,60,47,11834,9377,5121,4039,2584,32293,4631,8434,Tag0,unknown
1.56778E+12,0,76,1.67E-05,100,54,47,5637,21582,4064,6898,9507,16744,5314,4337,Tag0,unknown
1.56778E+12,0,-112,-2.46E-05,100,64,47,7302,6041,19385,12037,3828,12474,3236,6411,Tag0,unknown
1.56778E+12,0,54,1.19E-05,100,69,43,68075,20158,6878,16455,13203,24481,19380,3313,Tag0,unknown
1.56778E+12,0,20,4.39E-06,93,74,43,16745168,29391,5751,15004,12264,10056,11148,4908,Tag0,unknown
1.56778E+12,0,69,1.52E-05,90,80,43,21274,17431,13908,8118,6279,11436,11058,4498,Tag0,unknown
1.56778E+12,0,-59,-1.30E-05,80,75,50,39932,22818,7811,12101,1481,3410,3737,2113,Tag0,unknown
timestampMs,poorSignal,eegRawValue,eegRawValueVolts,attention,meditation,blinkStrength,delta,theta,alphaLow,alphaHigh,betaLow,betaHigh,gammaLow,gammaMid,tagEvent,location
1.56778E+12,25,42,9.23E-06,0,0,89,6,0,0,0,0,1,1,0,Tag0,unknown
1.56778E+12,25,43,9.45E-06,0,0,89,6,0,0,0,0,1,1,0,Tag0,unknown
1.56778E+12,25,102,2.24E-05,0,0,89,16777147,88,22,9,8,3,2,1,Tag0,unknown
1.56778E+12,0,64,1.41E-05,0,0,89,119840,132696,35251,78606,16773050,28124,12041,18916,Tag0,unknown
1.56778E+12,0,17,3.74E-06,0,0,89,197511,133362,6016,14009,13546,18773,19533,4211,Tag0,unknown
1.56778E+12,0,92,2.02E-05,30,30,39,1233030,113831,5867,7527,14571,3638,6853,1965,Tag0,unknown
1.56778E+12,0,35,7.69E-06,37,27,39,106207,191263,24509,7189,6726,28635,10577,6380,Tag0,unknown
1.56778E+12,0,-231,-5.08E-05,43,40,41,60363,74762,18336,16759799,10825,20110,8237,12968,Tag0,unknown
1.56778E+12,0,-332,-7.29E-05,48,44,45,2306067,375197,207717,10708,36241,16773089,16747279,16745107,Tag0,unknown
1.56778E+12,0,-84,-1.85E-05,48,44,45,2306067,375197,207717,10708,36241,16773089,16747279,16745107,Tag0,unknown
1.56778E+12,0,108,2.37E-05,61,77,45,2346089,291954,335854,16747994,69004,16755105,16744814,11899,Tag0,unknown
1.56778E+12,0,-150,-3.30E-05,56,70,45,418011,181345,38959,3707,12190,22995,21796,5199,Tag0,unknown
1.56778E+12,0,76,1.67E-05,47,69,54,1913995,420078,39253,16758237,85158,14817,15958,8443,Tag0,unknown
1.56778E+12,0,42,9.23E-06,47,70,47,67219,17433,3384,7358,3687,5635,2306,989,Tag0,unknown
1.56778E+12,0,-123,-2.70E-05,44,64,41,292422,29305,17081,1642,10387,2355,8478,1619,Tag0,unknown
1.56778E+12,0,296,6.50E-05,41,57,41,142909,155811,8584,19248,4983,7083,6518,7275,Tag0,unknown
1.56778E+12,0,104,2.29E-05,50,54,56,503093,16763239,4712,7753,1432,4501,2239,4743,Tag0,unknown
1.56778E+12,0,50,1.10E-05,44,47,56,16774090,66293,10713,1854,9702,8554,8224,2854,Tag0,unknown
1.56778E+12,0,160,3.52E-05,53,44,56,121825,18475,8963,5427,17342,5573,8949,1511,Tag0,unknown
1.56778E+12,0,51,1.12E-05,64,67,42,857396,4457,15847,10369,2819,4535,4282,4868,Tag0,unknown
1.56778E+12,0,1,2.20E-07,81,70,42,70452,21417,6293,16538,12836,30174,24345,14370,Tag0,unknown
1.56778E+12,0,-364,-8.00E-05,96,78,39,6484,20269,10248,12008,17265,29541,10364,11563,Tag0,unknown
1.56778E+12,0,82,1.80E-05,96,75,39,75315,14881,723,5715,10845,3012,9282,1304,Tag0,unknown
1.56778E+12,0,88,1.93E-05,100,57,39,97495,16760700,26733,10822,19856,30518,12986,5185,Tag0,unknown
1.56778E+12,0,112,2.46E-05,100,60,48,90066,16748351,1492,16744430,20147,16745382,7302,10104,Tag0,unknown
1.56778E+12,0,34,7.47E-06,100,63,48,14298,4604,13351,4530,13699,26166,11525,11558,Tag0,unknown
1.56778E+12,0,122,2.68E-05,100,64,48,1620,11609,1108,16152,11553,16746056,25105,7521,Tag0,unknown
1.56778E+12,0,-106,-2.33E-05,100,67,58,193980,69740,16750161,14338,7910,10775,5186,1887,Tag0,unknown
1.56778E+12,0,71,1.56E-05,97,60,58,401160,183544,10996,16745949,22755,16775183,16747121,12492,Tag0,unknown
1.56778E+12,0,-259,-5.69E-05,91,51,58,102042,16762719,8305,15094,16754951,16751534,19677,9352,Tag0,unknown
1.56778E+12,0,-69,-1.52E-05,84,50,39,156794,39186,17525,30423,24269,74776,15100,15968,Tag0,unknown
1.56778E+12,0,60,1.32E-05,93,38,57,166805,30651,166,7114,5514,11084,10344,1902,Tag0,unknown
1.56778E+12,0,-285,-6.26E-05,96,44,61,27774,7670,324,4602,5453,4025,14084,705,Tag0,unknown
1.56778E+12,0,8,1.76E-06,91,60,61,16766933,16483,6495,17120,3124,8165,4880,1761,Tag0,unknown
1.56778E+12,0,-264,-5.80E-05,88,57,61,168677,58414,16744723,6241,24102,16762284,16755741,23275,Tag0,unknown
1.56778E+12,0,104,2.29E-05,88,54,61,99553,14257,2121,895,5283,5267,7880,710,Tag0,unknown
1.56778E+12,0,69,1.52E-05,83,53,58,74691,23680,3969,5936,6056,5779,5751,826,Tag0,unknown
1.56778E+12,0,-122,-2.68E-05,77,41,40,267598,239572,24587,16758929,31598,16748252,18320,5441,Tag0,unknown
1.56778E+12,0,34,7.47E-06,74,51,44,16767039,15953,7546,16195,8872,8015,4236,4212,Tag0,unknown
1.56778E+12,0,-372,-8.17E-05,66,56,38,132357,179379,5667,16770480,31660,16749785,14721,10338,Tag0,unknown
1.56778E+12,0,-301,-6.61E-05,81,54,42,12736,3385,438,3914,7204,13543,4998,5244,Tag0,unknown
1.56778E+12,0,85,1.87E-05,93,53,42,36311,18250,691,5674,2669,14806,8588,5400,Tag0,unknown
1.56778E+12,0,106,2.33E-05,100,40,43,45147,10778,2114,8526,18933,16763330,17538,20395,Tag0,unknown
1.56778E+12,0,35,7.69E-06,100,38,44,1601313,86107,14600,14598,30250,87397,13406,8706,Tag0,unknown
1.56778E+12,0,99,2.18E-05,100,40,44,88466,6048,3076,1515,5616,4549,3912,3294,Tag0,unknown
1.56778E+12,0,22,4.83E-06,100,48,38,16751332,16744774,27516,9989,2291,16763394,29750,9247,Tag0,unknown
1.56778E+12,0,-28,-6.15E-06,93,61,38,16758049,4043,3761,3504,2085,5734,8982,3064,Tag0,unknown
1.56778E+12,0,83,1.82E-05,81,75,39,628030,154329,66335,67574,16744638,16746779,23750,8425,Tag0,unknown
1.56778E+12,0,85,1.87E-05,90,75,42,15211,8015,10950,3130,16885,31900,22831,10913,Tag0,unknown
1.56778E+12,0,43,9.45E-06,80,67,42,48941,16748355,2864,8922,5718,7502,4632,5760,Tag0,unknown
1.56778E+12,0,36,7.91E-06,88,60,42,18458,17711,15398,3767,6087,16775421,16235,12291,Tag0,unknown
1.56778E+12,0,18,3.96E-06,93,51,42,67667,79992,11913,16748265,80080,16746656,94167,9310,Tag0,unknown
1.56778E+12,0,84,1.85E-05,75,41,42,265946,277324,15722,15395,16747834,30645,16767085,15097,Tag0,unknown
1.56778E+12,0,81,1.78E-05,80,50,42,199223,16761505,13621,31398,7074,26573,16747674,5895,Tag0,unknown
1.56778E+12,0,55,1.21E-05,64,43,41,48802,62128,11006,9236,20135,16744608,9345,6402,Tag0,unknown
1.56778E+12,0,-88,-1.93E-05,64,51,41,21466,12215,16056,7151,10275,7811,7099,1968,Tag0,unknown
1.56778E+12,0,86,1.89E-05,69,60,41,134745,31667,7851,2783,3498,9272,6556,3122,Tag0,unknown
1.56778E+12,0,-275,-6.04E-05,77,57,41,27558,22711,9273,24060,18250,16754458,16737,12215,Tag0,unknown
1.56778E+12,0,-280,-6.15E-05,78,64,41,2194367,33911,9388,31167,22331,16753422,30840,31579,Tag0,unknown
timestampMs,poorSignal,eegRawValue,eegRawValueVolts,attention,meditation,blinkStrength,delta,theta,alphaLow,alphaHigh,betaLow,betaHigh,gammaLow,gammaMid,tagEvent,location
1.56778E+12,25,43,9.45E-06,0,0,39,10,0,0,1,0,1,2,1,Tag0,unknown
1.56778E+12,25,16,3.52E-06,0,0,39,16777177,64,44,33,24,7,5,9,Tag0,unknown
1.56778E+12,25,-283,-6.22E-05,0,0,39,16777177,64,44,33,24,7,5,9,Tag0,unknown
1.56778E+12,0,41,9.01E-06,0,0,43,23927,10112,4702,19995,11959,20143,12747,4505,Tag0,unknown
1.56778E+12,0,66,1.45E-05,0,0,43,197897,15095,9864,5172,2318,8165,3434,1103,Tag0,unknown
1.56778E+12,0,35,7.69E-06,0,0,43,157409,85910,23153,10097,13593,14909,9827,6817,Tag0,unknown
1.56778E+12,0,81,1.78E-05,51,30,43,22284,16220,4431,6891,12503,28416,10870,10534,Tag0,unknown
1.56778E+12,0,-332,-7.29E-05,34,40,43,571436,122144,82466,22736,20165,12294,4804,7757,Tag0,unknown
1.56778E+12,0,-58,-1.27E-05,26,53,63,996584,98311,16755723,92993,16761754,16749874,16745893,9162,Tag0,unknown
1.56778E+12,0,-215,-4.72E-05,14,66,70,443833,226558,47272,16759776,16745250,16745016,27529,22453,Tag0,unknown
1.56778E+12,0,82,1.80E-05,1,94,47,224345,16759511,20255,16750072,14872,5337,9996,4759,Tag0,unknown
1.56778E+12,0,298,6.55E-05,1,87,47,355103,505311,16772481,112913,96911,53779,16755333,19755,Tag0,unknown
1.56778E+12,0,-129,-2.83E-05,1,69,47,2334351,1880411,273288,264924,397468,72680,70025,84523,Tag0,unknown
1.56778E+12,0,-614,-1.35E-04,1,74,47,89624,16752140,22206,10965,5152,10747,10090,1576,Tag0,unknown
1.56778E+12,0,27,5.93E-06,1,57,45,649170,201595,85441,23515,28581,21465,19595,7330,Tag0,unknown
1.56778E+12,0,-122,-2.68E-05,4,75,45,1160644,43202,79616,22437,12962,16745748,16745776,7203,Tag0,unknown
1.56778E+12,0,-347,-7.62E-05,27,90,46,972807,16763523,29598,15260,9812,32492,17039,6602,Tag0,unknown
1.56778E+12,0,84,1.85E-05,24,61,68,804030,16746711,4727,2329,2666,3869,4717,1090,Tag0,unknown
1.56778E+12,0,-86,-1.89E-05,47,60,68,170198,5601,5998,4203,7681,11850,12655,5534,Tag0,unknown
1.56778E+12,0,-530,-1.16E-04,43,30,41,94649,66341,3317,9506,12979,10292,8109,3232,Tag0,unknown
1.56778E+12,0,-163,-3.58E-05,29,1,41,222477,284304,30407,9298,16755485,24922,16769857,13630,Tag0,unknown
1.56778E+12,0,75,1.65E-05,40,8,58,217492,16760109,9451,6416,3248,19847,2728,2659,Tag0,unknown
1.56778E+12,0,97,2.13E-05,20,1,42,595559,106048,27984,12919,16767738,16245,16760914,14181,Tag0,unknown
1.56778E+12,0,-265,-5.82E-05,27,1,69,85738,47650,640,22658,16762135,16753529,17745,4718,Tag0,unknown
1.56778E+12,0,26,5.71E-06,50,8,69,16765960,23151,31126,16835,16749779,68680,14186,19421,Tag0,unknown
1.56778E+12,0,8,1.76E-06,38,21,62,107626,16774292,16476,15965,7097,6984,5191,10857,Tag0,unknown
1.56778E+12,0,71,1.56E-05,54,56,62,13681,10984,29683,18508,4163,29638,23175,17098,Tag0,unknown
1.56778E+12,0,-315,-6.92E-05,61,61,39,29132,16764104,11537,8417,30751,16756564,30116,5392,Tag0,unknown
1.56778E+12,0,-521,-1.14E-04,43,69,54,306347,163402,84943,16753779,26836,16753730,17315,3789,Tag0,unknown
1.56778E+12,0,-265,-5.82E-05,48,66,54,1390915,92541,16746261,22366,16754004,17654,14811,11160,Tag0,unknown
1.56778E+12,0,20,4.39E-06,26,56,43,128649,22788,13398,1541,2357,1668,909,575,Tag0,unknown
1.56778E+12,0,-267,-5.87E-05,8,78,41,272461,16754048,18460,3560,1088,5245,4654,2464,Tag0,unknown
1.56778E+12,0,53,1.16E-05,14,48,41,119652,26146,2194,2633,2912,9162,7053,4009,Tag0,unknown
1.56778E+12,0,52,1.14E-05,34,35,41,11915,26848,952,11647,7828,16747826,9183,14922,Tag0,unknown
1.56778E+12,0,12,2.64E-06,47,34,41,30575,16768443,23990,16562,9874,16913,19879,19420,Tag0,unknown
1.56778E+12,0,-275,-6.04E-05,63,20,53,16777074,16767107,9156,14932,3584,16748545,18396,21489,Tag0,unknown
1.56778E+12,0,6,1.32E-06,50,56,42,741529,67105,29318,29759,3654,8341,12878,3129,Tag0,unknown
1.56778E+12,0,28,6.15E-06,21,48,43,16757178,16764145,2956,1392,1582,2385,2363,785,Tag0,unknown
1.56778E+12,0,65,1.43E-05,10,48,43,741774,221532,67550,16774102,23244,19013,9998,5946,Tag0,unknown
1.56778E+12,0,-124,-2.72E-05,1,56,40,786200,106944,16749219,16746636,23885,21778,16381,4523,Tag0,unknown
1.56778E+12,0,69,1.52E-05,1,57,41,241563,14904,10000,7133,2790,4649,3790,2726,Tag0,unknown
1.56778E+12,0,45,9.89E-06,17,70,47,191969,87368,12690,17590,16769538,16745707,29043,10726,Tag0,unknown
1.56778E+12,0,54,1.19E-05,24,63,60,1265225,160766,20736,16750327,32006,23690,17658,18203,Tag0,unknown
1.56778E+12,0,3,6.59E-07,26,57,41,1305252,76311,14387,9402,5854,13152,6362,2629,Tag0,unknown
1.56778E+12,0,-300,-6.59E-05,34,44,38,1366587,91492,16763436,12028,16763669,16754161,17815,4835,Tag0,unknown
1.56778E+12,0,122,2.68E-05,34,47,53,297600,16745410,5181,5694,4658,12546,3814,11231,Tag0,unknown
1.56778E+12,0,68,1.49E-05,34,60,41,135280,31889,8918,15851,5853,6370,3483,1893,Tag0,unknown
1.56778E+12,0,-348,-7.65E-05,44,50,40,80268,11335,1656,1621,6680,6516,5689,1197,Tag0,unknown
1.56778E+12,0,86,1.89E-05,29,24,46,2012427,571280,30173,15470,29600,16756001,12479,6408,Tag0,unknown
1.56778E+12,0,-330,-7.25E-05,21,20,38,47761,132206,13476,7238,5167,17880,5996,2042,Tag0,unknown
1.56778E+12,0,66,1.45E-05,30,1,38,207081,16760244,4819,3662,3047,17510,6178,3328,Tag0,unknown
1.56778E+12,0,91,2.00E-05,34,8,43,606040,16755575,17629,7142,13195,16747164,16747935,10346,Tag0,unknown
1.56778E+12,0,4,8.79E-07,47,30,43,1230773,159309,69576,3884,7860,16774459,16761715,10284,Tag0,unknown
1.56778E+12,0,-585,-1.29E-04,54,34,39,276929,16752449,5738,2678,4996,12388,6109,3176,Tag0,unknown
1.56778E+12,0,269,5.91E-05,50,44,36,142856,16759358,1057,16734,6840,11152,3313,14251,Tag0,unknown
1.56778E+12,0,109,2.40E-05,50,34,61,16765345,16752778,7378,2128,7276,24582,14242,4151,Tag0,unknown
1.56778E+12,0,-128,-2.81E-05,34,23,44,85720,16774612,9226,2349,9721,3337,18294,3011,Tag0,unknown
1.56778E+12,0,58,1.27E-05,27,37,57,1060968,80178,24191,9492,10008,15411,11119,4582,Tag0,unknown
1.56778E+12,0,83,1.82E-05,27,24,36,16767014,16762085,7876,645,6108,10188,5258,1933,Tag0,unknown
timestampMs,poorSignal,eegRawValue,eegRawValueVolts,attention,meditation,blinkStrength,delta,theta,alphaLow,alphaHigh,betaLow,betaHigh,gammaLow,gammaMid,tagEvent,location
1.56778E+12,25,43,9.45E-06,0,0,51,1,0,0,1,0,0,0,1,Tag0,unknown
1.56778E+12,25,41,9.01E-06,0,0,51,1,0,0,1,0,0,0,1,Tag0,unknown
1.56778E+12,0,73,1.60E-05,0,0,39,233349,136512,9091,14490,10214,9720,8131,8889,Tag0,unknown
1.56778E+12,0,54,1.19E-05,0,0,46,216418,65419,9215,16878,9050,21174,10266,11255,Tag0,unknown
1.56778E+12,0,12,2.64E-06,0,0,46,68720,10335,4635,4681,7267,4985,3955,2813,Tag0,unknown
1.56778E+12,0,90,1.98E-05,53,50,46,1170833,78986,16749149,16745702,16755488,16769670,26649,7933,Tag0,unknown
1.56778E+12,0,13,2.86E-06,75,56,46,26048,18618,2873,12235,10878,25377,25952,3610,Tag0,unknown
1.56778E+12,0,-339,-7.45E-05,83,50,57,68978,16766411,10282,3128,12865,16571,20249,8452,Tag0,unknown
1.56778E+12,0,48,1.05E-05,74,44,57,1108153,468573,30805,69925,16752115,30177,22402,5788,Tag0,unknown
1.56778E+12,0,-126,-2.77E-05,57,57,57,627421,16768879,16749447,72836,24023,17644,20754,16432,Tag0,unknown
1.56778E+12,0,88,1.93E-05,21,67,39,735380,96112,16769906,23770,15788,6066,10811,2400,Tag0,unknown
1.56778E+12,0,274,6.02E-05,13,87,75,160311,11012,2035,5946,4327,2375,3941,2103,Tag0,unknown
1.56778E+12,0,329,7.23E-05,4,100,43,583999,16766571,16765524,24755,12040,2189,20696,5028,Tag0,unknown
1.56778E+12,0,76,1.67E-05,1,100,49,2503442,154796,17594,16769701,11557,10060,16747272,14157,Tag0,unknown
1.56778E+12,0,-341,-7.49E-05,13,93,40,1999004,107088,16768410,16753544,22306,31188,19925,9637,Tag0,unknown
1.56778E+12,0,103,2.26E-05,8,80,45,602299,153584,8557,28572,8305,12132,15123,2770,Tag0,unknown
1.56778E+12,0,-273,-6.00E-05,21,54,47,486376,437387,16749354,96114,16748604,16750302,23679,25019,Tag0,unknown
1.56778E+12,0,-100,-2.20E-05,30,51,44,350409,16774067,14165,16261,11759,10093,9266,251,Tag0,unknown
1.56778E+12,0,54,1.19E-05,30,35,36,1260722,275489,29337,29268,28105,16749305,16776497,12145,Tag0,unknown
1.56778E+12,0,88,1.93E-05,53,17,44,53707,68184,16777117,9860,13838,16748743,16753534,8553,Tag0,unknown
1.56778E+12,0,84,1.85E-05,50,17,44,101913,19088,2646,2820,855,990,1324,598,Tag0,unknown
1.56778E+12,0,-285,-6.26E-05,69,17,44,16746749,20689,22855,7976,16746405,16747953,19577,8060,Tag0,unknown
1.56778E+12,0,10,2.20E-06,69,35,58,73200,16750612,12441,12287,6916,7497,8245,2739,Tag0,unknown
1.56778E+12,0,91,2.00E-05,50,61,46,579791,157275,16757970,16748948,26818,16076,14436,10545,Tag0,unknown
1.56778E+12,0,-278,-6.11E-05,64,74,46,1121103,75144,16745029,30445,20383,29649,21970,3689,Tag0,unknown
1.56778E+12,0,3,6.59E-07,37,70,40,145509,16755192,9798,5333,5564,2765,3490,1348,Tag0,unknown
1.56778E+12,0,-274,-6.02E-05,35,61,45,220838,129308,16764125,8195,22484,25528,18040,8135,Tag0,unknown
1.56778E+12,0,65,1.43E-05,40,63,42,90172,94196,16753786,16003,17478,15710,11898,10484,Tag0,unknown
1.56778E+12,0,34,7.47E-06,35,75,41,64552,16775541,30704,97465,24474,24225,19408,5248,Tag0,unknown
1.56778E+12,0,-128,-2.81E-05,56,78,41,1332213,15527,2999,10975,5926,11395,5720,5077,Tag0,unknown
1.56778E+12,0,-771,-1.69E-04,57,78,41,271061,227755,66113,17432,16751607,16745745,17801,10001,Tag0,unknown
1.56778E+12,0,96,2.11E-05,70,70,41,2310138,16775510,16746586,17856,16747964,16758848,21810,10251,Tag0,unknown
1.56778E+12,0,-269,-5.91E-05,80,44,54,117477,18828,3499,3004,3267,6897,3123,1157,Tag0,unknown
1.56778E+12,0,68,1.49E-05,63,60,54,897321,142040,159942,69102,16765181,32349,16744858,9205,Tag0,unknown
1.56778E+12,0,21,4.61E-06,74,81,42,85308,19206,22870,22313,8239,16481,4637,5257,Tag0,unknown
1.56778E+12,0,35,7.69E-06,67,100,42,1946880,16748662,16752451,155549,23546,16766406,27545,9664,Tag0,unknown
1.56778E+12,0,59,1.30E-05,63,88,42,655841,188672,8329,19862,16755205,16766938,14114,10425,Tag0,unknown
1.56778E+12,0,-38,-8.35E-06,66,53,46,16754854,68409,9625,1847,7455,8369,6716,4685,Tag0,unknown
1.56778E+12,0,98,2.15E-05,61,27,61,599709,71167,11234,9597,5672,14749,5323,1473,Tag0,unknown
1.56778E+12,0,-108,-2.37E-05,61,14,44,330516,23333,10846,11678,5333,11183,3005,2531,Tag0,unknown
1.56778E+12,0,89,1.96E-05,54,34,44,178099,66274,15285,9571,8528,9230,8198,3430,Tag0,unknown
1.56778E+12,0,35,7.69E-06,67,48,44,481819,16751903,27782,12399,16749601,27306,16766674,11502,Tag0,unknown
1.56778E+12,0,5,1.10E-06,64,47,57,149473,16776833,10609,4399,5539,9745,7426,3762,Tag0,unknown
1.56778E+12,0,74,1.63E-05,78,35,57,25368,16162,5424,12265,5054,16751470,31019,11946,Tag0,unknown
1.56778E+12,0,281,6.17E-05,88,37,53,276481,55740,16754400,19990,16745847,16765407,17659,22246,Tag0,unknown
1.56778E+12,0,80,1.76E-05,78,48,43,71780,7663,5573,6672,4211,2731,4174,2681,Tag0,unknown
1.56778E+12,0,22,4.83E-06,96,47,41,93861,19381,546,12910,27932,30981,11968,16838,Tag0,unknown
1.56778E+12,0,49,1.08E-05,88,64,41,16754326,12935,23239,23272,9685,25085,22260,17707,Tag0,unknown
1.56778E+12,0,7,1.54E-06,81,60,41,418501,155716,19128,24226,12013,30618,16763528,13176,Tag0,unknown
1.56778E+12,0,53,1.16E-05,93,43,56,66592,25279,8142,6377,7579,16340,4064,6529,Tag0,unknown
1.56778E+12,0,35,7.69E-06,81,53,56,671021,149247,16756428,16771142,16764100,70826,13439,5832,Tag0,unknown
1.56778E+12,0,39,8.57E-06,74,44,46,1822304,42163,9660,82752,30156,16749474,24531,12373,Tag0,unknown
1.56778E+12,0,2,4.39E-07,78,51,46,86694,29492,9627,4775,5896,11575,6424,2640,Tag0,unknown
1.56778E+12,0,-57,-1.25E-05,81,48,37,46092,8730,4462,1362,5698,9877,2623,2680,Tag0,unknown
1.56778E+12,0,-119,-2.61E-05,77,41,40,82999,13326,648,3265,2371,2868,1416,175,Tag0,unknown
1.56778E+12,0,20,4.39E-06,78,21,58,786563,100089,31284,8507,29885,16764425,28086,30560,Tag0,unknown
1.56778E+12,0,41,9.01E-06,90,21,47,16754567,17182,8777,8589,11672,28739,20764,20491,Tag0,unknown
1.56778E+12,0,64,1.41E-05,75,23,45,342812,67134,15124,11055,2480,13935,7393,4152,Tag0,unknown
1.56778E+12,0,-104,-2.29E-05,93,14,45,443673,16756450,6356,9272,20098,16766110,12074,13148,Tag0,unknown
timestampMs,poorSignal,eegRawValue,eegRawValueVolts,attention,meditation,blinkStrength,delta,theta,alphaLow,alphaHigh,betaLow,betaHigh,gammaLow,gammaMid,tagEvent,location
1.56778E+12,25,43,9.45E-06,0,0,47,2,0,0,0,0,0,0,0,Tag0,unknown
1.56778E+12,25,-45,-9.89E-06,0,0,47,111,10,0,1,1,1,1,2,Tag0,unknown
1.56778E+12,0,-100,-2.20E-05,0,0,43,2057783,709081,199859,148098,73023,73576,16760713,16773337,Tag0,unknown
1.56778E+12,0,-123,-2.70E-05,0,0,44,218100,10054,1392,4845,2153,2220,1969,1396,Tag0,unknown
1.56778E+12,0,70,1.54E-05,0,0,35,30658,24574,10845,6551,9064,5476,5224,995,Tag0,unknown
1.56778E+12,0,80,1.76E-05,54,30,45,161290,38016,8602,31174,16751104,20078,19439,6926,Tag0,unknown
1.56778E+12,0,21,4.61E-06,64,48,45,223123,16750184,16726,5506,2481,6642,7509,1660,Tag0,unknown
1.56778E+12,0,99,2.18E-05,56,34,46,567734,135182,11890,21028,17827,10629,15185,5209,Tag0,unknown
1.56778E+12,0,-305,-6.70E-05,75,14,59,539844,75422,2860,4103,5283,12338,3473,2513,Tag0,unknown
1.56778E+12,0,-127,-2.79E-05,83,24,41,601877,272351,16773965,15019,16686,74174,16756700,11605,Tag0,unknown
1.56778E+12,0,-124,-2.72E-05,74,1,63,1346134,426629,25704,18247,27722,16764115,16759321,7136,Tag0,unknown
1.56778E+12,0,-25,-5.49E-06,96,1,59,740508,404388,14290,7322,8360,71043,16747361,19486,Tag0,unknown
1.56778E+12,0,87,1.91E-05,94,27,44,144342,5845,6782,8847,1936,3368,2446,755,Tag0,unknown
1.56778E+12,0,45,9.89E-06,88,8,53,16748698,94039,2497,3003,7763,15333,13949,2124,Tag0,unknown
1.56778E+12,0,-348,-7.65E-05,96,30,59,1233786,75200,21173,8865,5756,12911,5695,6587,Tag0,unknown
1.56778E+12,0,45,9.89E-06,96,60,39,1535819,16750697,20380,5167,5856,10121,7180,1562,Tag0,unknown
1.56778E+12,0,297,6.53E-05,66,30,43,566845,780435,33630,29687,16756295,16761955,28980,6654,Tag0,unknown
1.56778E+12,0,-109,-2.40E-05,47,37,36,108098,99632,3821,9859,6671,13006,6042,3734,Tag0,unknown
1.56778E+12,0,-278,-6.11E-05,29,30,44,2401944,365821,16763518,16760497,16750882,16748687,29091,7565,Tag0,unknown
1.56778E+12,0,-112,-2.46E-05,16,27,43,1833636,250957,132967,12591,28201,16760171,24702,11690,Tag0,unknown
1.56778E+12,0,43,9.45E-06,53,48,43,16756484,14432,12674,17274,13489,17826,16744394,19275,Tag0,unknown
1.56778E+12,0,-102,-2.24E-05,81,64,43,143142,16774023,5387,16745040,17493,16753448,31359,7108,Tag0,unknown
1.56778E+12,0,-127,-2.79E-05,100,77,40,34937,6911,2657,7507,7680,5010,2869,5860,Tag0,unknown
1.56778E+12,0,-270,-5.93E-05,100,67,43,26106,18878,11097,2199,26378,16745496,29046,8587,Tag0,unknown
1.56778E+12,0,116,2.55E-05,100,60,41,213272,16773476,14000,18609,18404,28732,16745890,3270,Tag0,unknown
1.56778E+12,0,83,1.82E-05,81,54,59,211725,16764476,12674,2373,6837,7751,6332,2214,Tag0,unknown
1.56778E+12,0,80,1.76E-05,51,29,59,87287,136389,7993,2023,1611,9885,5450,5592,Tag0,unknown
1.56778E+12,0,113,2.48E-05,26,26,42,506245,24983,2062,1962,3296,4828,6464,2178,Tag0,unknown
1.56778E+12,0,50,1.10E-05,16,30,41,134552,16757721,16819,21387,8138,12196,5472,4232,Tag0,unknown
1.56778E+12,0,-261,-5.73E-05,35,26,38,28021,16762363,1304,18059,16765073,32479,16771328,23489,Tag0,unknown
1.56778E+12,0,67,1.47E-05,51,48,42,186355,16753605,10342,29656,16745291,19129,20887,17267,Tag0,unknown
1.56778E+12,0,89,1.96E-05,43,44,42,184119,407151,25636,26194,16769936,16753491,6572,9473,Tag0,unknown
1.56778E+12,0,20,4.39E-06,51,44,42,49039,12820,7628,2457,3619,5535,7752,1952,Tag0,unknown
1.56778E+12,0,33,7.25E-06,37,60,42,792268,63436,16765596,25020,18261,31845,9610,11572,Tag0,unknown
1.56778E+12,0,73,1.60E-05,24,40,46,1336229,212619,18436,3119,8698,24157,14950,3927,Tag0,unknown
1.56778E+12,0,-280,-6.15E-05,27,70,41,786296,16754164,33487,10885,15449,16926,7300,5082,Tag0,unknown
1.56778E+12,0,-306,-6.72E-05,13,53,52,176429,88657,5947,5458,6549,7554,5504,2177,Tag0,unknown
1.56778E+12,0,-127,-2.79E-05,1,38,52,1007636,86482,4433,7764,4974,4762,3295,1641,Tag0,unknown
1.56778E+12,0,-257,-5.65E-05,1,44,52,854545,175448,16746863,5717,14099,21966,16770539,13190,Tag0,unknown
1.56778E+12,0,-316,-6.94E-05,23,27,52,229754,30456,8948,16751078,7216,79042,32546,18804,Tag0,unknown
1.56778E+12,0,88,1.93E-05,26,43,53,150751,73881,27808,4902,7219,11410,10063,6466,Tag0,unknown
1.56778E+12,0,-139,-3.05E-05,54,51,46,742310,16767437,3362,19679,4834,29420,6675,2153,Tag0,unknown
1.56778E+12,0,-306,-6.72E-05,60,51,46,585769,333632,21505,29818,29996,16755957,18443,15307,Tag0,unknown
1.56778E+12,0,81,1.78E-05,44,60,46,333628,16747525,16757258,25993,28154,16745311,27511,13692,Tag0,unknown
1.56778E+12,0,-262,-5.76E-05,50,60,53,36526,67073,29003,3089,5194,15732,3494,2432,Tag0,unknown
1.56778E+12,0,-265,-5.82E-05,21,53,46,628249,317139,16746309,25276,25634,11571,9747,8488,Tag0,unknown
1.56778E+12,0,-281,-6.17E-05,11,53,40,385140,166376,25713,6052,9863,9224,4846,2204,Tag0,unknown
1.56778E+12,0,1,2.20E-07,1,43,44,620867,16752594,14709,8094,19534,6993,5661,2409,Tag0,unknown
1.56778E+12,0,29,6.37E-06,1,50,59,93952,16750970,19062,18265,7883,7589,5253,1499,Tag0,unknown
1.56778E+12,0,-295,-6.48E-05,16,64,59,768399,84925,16452,16768511,16745410,17386,22179,13740,Tag0,unknown
1.56778E+12,0,-327,-7.19E-05,37,74,36,401176,16763825,14054,2262,5615,13281,5222,4144,Tag0,unknown
1.56778E+12,0,12,2.64E-06,48,70,40,772277,78761,31544,14110,16749099,16750737,32247,9063,Tag0,unknown
1.56778E+12,0,-257,-5.65E-05,63,60,40,65757,16772785,10193,27593,16776474,16749122,24029,6786,Tag0,unknown
1.56778E+12,0,86,1.89E-05,88,50,38,16762558,8349,8163,8512,3980,73129,16597,5791,Tag0,unknown
1.56778E+12,0,-274,-6.02E-05,91,50,38,538957,73509,22975,20731,32366,16770729,18315,7476,Tag0,unknown
1.56778E+12,0,-52,-1.14E-05,81,54,38,86359,16744421,10910,10966,1906,11096,18234,3483,Tag0,unknown
1.56778E+12,0,66,1.45E-05,61,54,51,270632,286064,16752468,16762462,16753705,16745891,16752923,4543,Tag0,unknown
1.56778E+12,0,74,1.63E-05,44,60,51,16755613,5798,3827,1996,6924,5339,6563,2774,Tag0,unknown
1.56778E+12,0,82,1.80E-05,43,70,51,27752,20092,22332,12143,8176,22747,21291,8356,Tag0,unknown
timestampMs,poorSignal,eegRawValue,eegRawValueVolts,attention,meditation,blinkStrength,delta,theta,alphaLow,alphaHigh,betaLow,betaHigh,gammaLow,gammaMid,tagEvent,location
1.56778E+12,26,42,9.23E-06,41,64,37,1048391,1544191,80403,46177,16773611,354066,87308,63421,Tag0,unknown
1.56778E+12,25,43,9.45E-06,0,0,37,3,0,0,0,1,0,2,1,Tag0,unknown
1.56778E+12,25,16,3.52E-06,0,0,37,42,4,1,1,1,1,0,0,Tag0,unknown
1.56778E+12,25,97,2.13E-05,0,0,68,42,4,1,1,1,1,0,0,Tag0,unknown
1.56778E+12,0,43,9.45E-06,0,0,40,462731,262765,51557,31538,23312,16750696,16750545,16752385,Tag0,unknown
1.56778E+12,0,57,1.25E-05,0,0,40,133901,71707,12412,30277,30769,18095,24942,14199,Tag0,unknown
1.56778E+12,0,34,7.47E-06,35,51,55,1364036,56929,42191,8341,10241,12466,8097,12711,Tag0,unknown
1.56778E+12,0,-157,-3.45E-05,35,51,40,1364036,56929,42191,8341,10241,12466,8097,12711,Tag0,unknown
1.56778E+12,0,-58,-1.27E-05,44,35,35,579203,16744514,16001,5939,5813,10950,8528,2199,Tag0,unknown
1.56778E+12,0,-146,-3.21E-05,44,35,38,579203,16744514,16001,5939,5813,10950,8528,2199,Tag0,unknown
1.56778E+12,0,68,1.49E-05,75,20,42,260524,9153,10321,4768,1490,6636,2046,705,Tag0,unknown
1.56778E+12,0,-105,-2.31E-05,94,35,42,46239,7512,3037,245,1166,1532,1056,751,Tag0,unknown
1.56778E+12,0,74,1.63E-05,100,38,57,1224446,147454,46224,16747634,29218,136823,16760266,2956,Tag0,unknown
1.56778E+12,0,116,2.55E-05,100,37,40,627575,16756691,5223,2448,10643,16771448,16752511,8153,Tag0,unknown
1.56778E+12,0,61,1.34E-05,100,14,40,178261,16766547,4247,7003,11966,12698,12566,7678,Tag0,unknown
1.56778E+12,0,92,2.02E-05,90,23,40,148508,10585,4298,697,1290,2110,1183,355,Tag0,unknown
1.56778E+12,0,118,2.59E-05,81,23,40,16749702,16759939,17855,23136,22927,16760342,20872,5300,Tag0,unknown
1.56778E+12,0,90,1.98E-05,57,54,40,928590,16766697,3131,16767647,22633,14677,16767159,5079,Tag0,unknown
1.56778E+12,0,57,1.25E-05,77,54,36,16767204,16744943,9511,3533,15407,16748932,18168,14177,Tag0,unknown
1.56778E+12,0,32,7.03E-06,83,57,36,259433,97075,16752332,31835,18318,16756221,29712,4527,Tag0,unknown
1.56778E+12,0,85,1.87E-05,90,53,56,45734,11729,5316,11291,18047,16748634,16748746,7472,Tag0,unknown
1.56778E+12,0,-343,-7.54E-05,97,43,56,372990,26746,7964,4085,2598,11529,5762,3008,Tag0,unknown
1.56778E+12,0,-284,-6.24E-05,97,43,56,372990,26746,7964,4085,2598,11529,5762,3008,Tag0,unknown
1.56778E+12,0,54,1.19E-05,87,26,41,1258779,102058,21982,26658,19556,16764674,19156,20437,Tag0,unknown
1.56778E+12,0,66,1.45E-05,61,17,38,155326,197083,20109,19323,16766537,31943,16776652,9695,Tag0,unknown
1.56778E+12,0,-79,-1.74E-05,38,1,40,1987258,1136179,16746982,28898,16760994,16746764,30925,17463,Tag0,unknown
1.56778E+12,0,-598,-1.31E-04,37,20,53,236334,9158,7189,1311,1188,6021,1894,2105,Tag0,unknown
1.56778E+12,0,4,8.79E-07,23,35,53,16773234,29691,14171,1700,2713,2736,3666,1339,Tag0,unknown
1.56778E+12,0,122,2.68E-05,29,56,35,253613,70838,22827,16755069,12484,16751670,16766813,15815,Tag0,unknown
1.56778E+12,0,-145,-3.19E-05,54,80,39,401191,69136,32033,12257,26415,16744772,9219,15930,Tag0,unknown
1.56778E+12,0,-324,-7.12E-05,44,56,41,234657,16775504,5999,813,4909,9740,7189,4869,Tag0,unknown
1.56778E+12,0,-311,-6.83E-05,43,43,58,488194,62355,19102,8453,16867,7460,15988,3819,Tag0,unknown
1.56778E+12,0,-266,-5.84E-05,35,27,58,1548255,110343,10358,24943,19985,26091,82330,16996,Tag0,unknown
1.56778E+12,0,73,1.60E-05,20,17,58,215774,340321,20901,16755832,25059,30608,72399,15878,Tag0,unknown
1.56778E+12,0,-371,-8.15E-05,21,40,41,2041324,184484,151319,28128,16765842,16776914,69466,9507,Tag0,unknown
1.56778E+12,0,4,8.79E-07,21,29,56,16761439,35111,4932,3037,6419,5941,2105,435,Tag0,unknown
1.56778E+12,0,49,1.08E-05,21,37,56,1130867,16756691,11926,6788,22117,7500,6277,2880,Tag0,unknown
1.56778E+12,0,51,1.12E-05,20,50,59,2009594,671652,153680,190238,58168,88869,73805,16745359,Tag0,unknown
1.56778E+12,0,280,6.15E-05,10,44,47,573337,72545,27563,1899,13584,5993,3852,1687,Tag0,unknown
1.56778E+12,0,83,1.82E-05,16,51,57,1560383,116053,18186,8848,9783,19720,3563,5871,Tag0,unknown
1.56778E+12,0,100,2.20E-05,14,57,43,533697,170469,96853,18663,16752773,16748040,17625,12044,Tag0,unknown
1.56778E+12,0,57,1.25E-05,40,50,45,855076,16776924,30506,16397,25629,84830,29262,8716,Tag0,unknown
1.56778E+12,0,11,2.42E-06,60,47,42,354741,31367,3850,7700,4233,15580,3875,3736,Tag0,unknown
1.56778E+12,0,323,7.10E-05,75,53,42,909116,148576,16758624,25494,81786,95717,31215,4765,Tag0,unknown
1.56778E+12,0,81,1.78E-05,78,53,41,162472,24558,6322,8447,8663,5726,7121,1448,Tag0,unknown
1.56778E+12,0,85,1.87E-05,56,61,47,306530,165586,16766340,35062,16744330,16746171,29274,10917,Tag0,unknown
1.56778E+12,0,60,1.32E-05,51,64,47,126075,43332,18174,30762,26679,16744600,9121,5376,Tag0,unknown
1.56778E+12,0,113,2.48E-05,48,77,47,10074,24847,10370,16841,7811,15072,18591,2746,Tag0,unknown
1.56778E+12,0,-1052,-2.31E-04,64,80,47,14907,14709,8681,16722,14748,27175,29937,10994,Tag0,unknown
1.56778E+12,51,42,9.23E-06,64,80,47,1494874,1912025,220903,137810,347288,882027,172568,261776,Tag0,unknown
1.56778E+12,25,-622,-1.37E-04,64,80,47,638092,41856,1723,860,3233,6688,1014,16777209,Tag0,unknown
1.56778E+12,26,-2113,-4.64E-04,64,80,47,694793,161065,72925,130169,465759,124442,190879,16766625,Tag0,unknown
1.56778E+12,51,-2048,-4.50E-04,64,80,47,1057860,48545,89892,60118,338596,372032,499533,134719,Tag0,unknown
1.56778E+12,51,470,1.03E-04,64,80,47,255244,580849,287767,45265,521445,179446,121316,202953,Tag0,unknown
timestampMs,poorSignal,eegRawValue,eegRawValueVolts,attention,meditation,blinkStrength,delta,theta,alphaLow,alphaHigh,betaLow,betaHigh,gammaLow,gammaMid,tagEvent,location
1.56778E+12,25,43,9.45E-06,0,0,38,1,0,0,0,0,1,1,0,Tag0,unknown
1.56778E+12,25,16,3.52E-06,0,0,38,24,1,1,0,0,2,1,2,Tag0,unknown
1.56778E+12,25,24,5.27E-06,0,0,38,24,1,1,0,0,2,1,2,Tag0,unknown
1.56778E+12,0,-332,-7.29E-05,0,0,45,199239,16765857,4271,8237,1792,8276,4554,1618,Tag0,unknown
1.56778E+12,0,-273,-6.00E-05,0,0,44,426592,69634,69283,12928,11548,15581,25023,4484,Tag0,unknown
1.56778E+12,0,-265,-5.82E-05,0,0,41,511826,305209,15360,14243,20659,32200,31895,4962,Tag0,unknown
1.56778E+12,0,48,1.05E-05,30,41,43,373306,166947,15294,16756613,9406,18413,6768,6597,Tag0,unknown
1.56778E+12,0,10,2.20E-06,30,41,43,373306,166947,15294,16756613,9406,18413,6768,6597,Tag0,unknown
1.56778E+12,0,-269,-5.91E-05,63,41,43,16749749,16757009,18767,9136,19815,16745039,13082,10110,Tag0,unknown
1.56778E+12,0,67,1.47E-05,63,50,59,16759444,23405,6144,10292,3927,8275,8349,593,Tag0,unknown
1.56778E+12,0,-126,-2.77E-05,70,56,43,396114,66585,31273,18137,9744,30879,16747169,3038,Tag0,unknown
1.56778E+12,0,8,1.76E-06,29,66,39,128299,16759186,19374,12878,6892,3814,2966,2854,Tag0,unknown
1.56778E+12,0,-268,-5.89E-05,16,69,50,125824,69119,29184,7201,8076,15655,10041,5172,Tag0,unknown
1.56778E+12,0,72,1.58E-05,14,66,41,87797,22083,5415,5851,3037,7422,5189,2795,Tag0,unknown
1.56778E+12,0,107,2.35E-05,3,57,41,210902,20287,2293,1417,1001,2142,1410,975,Tag0,unknown
1.56778E+12,0,93,2.04E-05,3,47,41,2504717,369932,26755,16748307,18498,17384,16758466,5064,Tag0,unknown
1.56778E+12,0,-354,-7.78E-05,1,47,39,130357,16753628,8074,11357,6310,5853,5627,2943,Tag0,unknown
1.56778E+12,0,118,2.59E-05,1,48,39,13010,18592,7597,4057,4766,6334,2887,2896,Tag0,unknown
1.56778E+12,0,6,1.32E-06,1,44,44,36177,168092,21380,20516,29696,13407,23910,9948,Tag0,unknown
1.56778E+12,0,54,1.19E-05,27,56,43,16763054,20832,8636,22371,25237,25624,10857,2607,Tag0,unknown
1.56778E+12,0,-276,-6.06E-05,24,57,40,460059,16748387,2040,23481,10335,4240,4701,1299,Tag0,unknown
1.56778E+12,0,59,1.30E-05,24,64,40,31958,19044,12669,13284,4700,8039,3525,1518,Tag0,unknown
1.56778E+12,0,85,1.87E-05,44,67,46,16770926,16753087,9325,6781,9708,19503,23639,8513,Tag0,unknown
1.56778E+12,0,-125,-2.75E-05,21,56,43,455750,561006,24726,16756474,14467,16752906,28560,14552,Tag0,unknown
1.56778E+12,0,90,1.98E-05,35,43,43,222862,7638,612,512,1320,1668,1123,580,Tag0,unknown
1.56778E+12,0,10,2.20E-06,35,40,37,16751057,21575,11194,3944,3318,6967,6522,1344,Tag0,unknown
1.56778E+12,0,54,1.19E-05,23,41,54,110121,148523,16744722,30707,26169,22625,17036,13870,Tag0,unknown
1.56778E+12,0,7,1.54E-06,48,60,40,16776291,3149,9934,733,3389,7319,2131,2551,Tag0,unknown
1.56778E+12,0,85,1.87E-05,37,56,44,84860,84614,595,7322,15844,7590,10933,6297,Tag0,unknown
1.56778E+12,0,-85,-1.87E-05,34,48,44,574408,83495,13039,6582,7706,12255,10835,11285,Tag0,unknown
1.56778E+12,0,28,6.15E-06,38,37,44,358352,16751489,2888,2439,10296,7803,3087,3276,Tag0,unknown
1.56778E+12,0,-296,-6.50E-05,17,30,44,20949,16749646,18106,4334,10352,4813,4311,1856,Tag0,unknown
1.56778E+12,0,64,1.41E-05,23,43,42,768782,72398,15963,26304,16762796,18653,21414,4192,Tag0,unknown
1.56778E+12,0,35,7.69E-06,14,41,55,1501785,329173,18037,16747937,15074,19393,27929,11423,Tag0,unknown
1.56778E+12,0,-60,-1.32E-05,17,44,43,562244,61292,23578,3888,16753408,16749213,32525,6301,Tag0,unknown
1.56778E+12,0,7,1.54E-06,21,38,38,216875,239413,16763187,18649,27495,16751339,16753740,9387,Tag0,unknown
1.56778E+12,0,37,8.13E-06,17,35,35,145038,16772136,6338,8914,13754,9980,6890,3300,Tag0,unknown
1.56778E+12,0,-278,-6.11E-05,41,41,40,470259,22496,24782,13379,16761152,26979,11843,6428,Tag0,unknown
1.56778E+12,0,22,4.83E-06,37,54,51,30059,16318,8523,9563,5904,5348,4913,1846,Tag0,unknown
1.56778E+12,0,17,3.74E-06,29,64,45,112300,16770701,17182,22842,5107,5910,3779,1514,Tag0,unknown
1.56778E+12,0,87,1.91E-05,20,63,44,63418,42961,8970,13290,5702,7403,12214,996,Tag0,unknown
1.56778E+12,0,-91,-2.00E-05,16,60,47,62986,87988,17890,21761,16747747,16752965,24199,7565,Tag0,unknown
1.56778E+12,0,7,1.54E-06,16,44,40,1475353,287062,27114,14942,24962,16767850,23649,9024,Tag0,unknown
1.56778E+12,0,-270,-5.93E-05,35,43,40,297203,53652,71773,16750674,16757412,16773163,20001,18489,Tag0,unknown
1.56778E+12,0,-267,-5.87E-05,44,60,55,614313,8621,3331,16096,4846,3804,4673,5032,Tag0,unknown
1.56778E+12,0,25,5.49E-06,38,56,47,144283,34860,10457,16823,29853,22349,29023,18119,Tag0,unknown
1.56778E+12,0,-292,-6.42E-05,40,56,54,16746625,16747897,2182,2826,8517,8782,4244,3265,Tag0,unknown
1.56778E+12,0,104,2.29E-05,30,48,43,627727,72153,5515,11222,12141,9300,7931,6569,Tag0,unknown
1.56778E+12,0,-262,-5.76E-05,47,23,43,1054309,20492,61,2365,4529,15019,3599,2459,Tag0,unknown
1.56778E+12,0,-315,-6.92E-05,56,23,47,797629,68350,16747626,8339,36868,16755581,25712,12502,Tag0,unknown
1.56778E+12,0,2,4.39E-07,50,35,46,400060,145225,16773390,12811,16765934,24912,19678,14816,Tag0,unknown
1.56778E+12,0,43,9.45E-06,51,37,46,816774,157297,26564,28614,16759636,24818,15083,8746,Tag0,unknown
1.56778E+12,0,-277,-6.09E-05,29,50,46,1012935,71275,11526,11032,10354,7576,8566,2681,Tag0,unknown
1.56778E+12,0,-298,-6.55E-05,41,56,37,28549,9390,8250,28031,21822,16761640,19079,6639,Tag0,unknown
1.56778E+12,0,87,1.91E-05,48,56,37,918180,38543,26641,16745997,20055,16752239,20531,10746,Tag0,unknown
1.56778E+12,0,-106,-2.33E-05,41,64,37,1713093,130320,16764858,38628,16748714,22827,10134,16746001,Tag0,unknown
1.56778E+12,25,-489,-1.07E-04,41,64,37,884707,1486231,1441709,940548,16749683,310372,417081,511613,Tag0,unknown
1.56778E+12,51,-1909,-4.19E-04,41,64,37,314643,131664,16769760,16750336,16770983,79393,27389,28487,Tag0,unknown
1.56778E+12,51,-1900,-4.17E-04,41,64,37,884632,76604,16769634,16759511,258866,80365,32082,22606,Tag0,unknown
timestampMs,poorSignal,eegRawValue,eegRawValueVolts,attention,meditation,blinkStrength,delta,theta,alphaLow,alphaHigh,betaLow,betaHigh,gammaLow,gammaMid,tagEvent,location
1.56778E+12,25,43,9.45E-06,0,0,56,0,0,0,1,0,1,1,0,Tag0,unknown
1.56778E+12,25,-40,-8.79E-06,0,0,56,102,19,10,7,3,3,1,0,Tag0,unknown
1.56778E+12,0,-355,-7.80E-05,0,0,56,55563,25102,2891,3273,1240,2829,1917,2398,Tag0,unknown
1.56778E+12,0,114,2.50E-05,0,0,36,113365,16748145,16339,2423,6547,5110,1668,1254,Tag0,unknown
1.56778E+12,0,54,1.19E-05,0,0,36,113365,16748145,16339,2423,6547,5110,1668,1254,Tag0,unknown
1.56778E+12,0,35,7.69E-06,0,0,46,716217,16774971,16757637,5514,17791,17345,12343,13235,Tag0,unknown
1.56778E+12,0,59,1.30E-05,53,53,53,186010,7346,6466,5716,1789,7522,3884,3851,Tag0,unknown
1.56778E+12,0,103,2.26E-05,43,40,53,345115,189588,28743,20010,15147,23832,21197,7059,Tag0,unknown
1.56778E+12,0,-108,-2.37E-05,41,60,53,508602,193188,16769258,16758103,17722,16744915,10835,7942,Tag0,unknown
1.56778E+12,0,-4,-8.79E-07,35,47,39,2869298,217638,7748,95414,28952,77499,16767955,12446,Tag0,unknown
1.56778E+12,0,24,5.27E-06,35,75,40,2719093,1131544,301464,441525,44087,151605,86800,16748078,Tag0,unknown
1.56778E+12,0,-323,-7.10E-05,35,69,40,624376,16754579,16747441,8737,2813,16764,10579,2201,Tag0,unknown
1.56778E+12,0,87,1.91E-05,51,70,42,565369,68383,16744668,15651,19818,16752091,19330,9513,Tag0,unknown
1.56778E+12,0,290,6.37E-05,35,64,43,16768607,16776045,9038,8882,7585,6779,6093,2547,Tag0,unknown
1.56778E+12,0,66,1.45E-05,47,43,43,551113,16745108,9665,825,7802,7020,4291,3209,Tag0,unknown
1.56778E+12,0,-578,-1.27E-04,44,24,45,39827,141606,13197,16747429,28308,16747443,28153,17109,Tag0,unknown
1.56778E+12,0,-269,-5.91E-05,27,3,45,1171163,587585,12184,16511,31652,70692,16746018,9244,Tag0,unknown
1.56778E+12,0,-277,-6.09E-05,20,16,36,1468604,477300,137476,16752125,16775108,23799,23599,16941,Tag0,unknown
1.56778E+12,0,-122,-2.68E-05,26,27,36,78580,16176,6275,3950,14799,6254,8482,706,Tag0,unknown
1.56778E+12,0,76,1.67E-05,41,43,37,16746436,25150,12825,21002,16744827,16745091,12745,4755,Tag0,unknown
1.56778E+12,0,80,1.76E-05,57,70,37,2011549,16755232,5968,25230,19021,23629,21711,7367,Tag0,unknown
1.56778E+12,0,-108,-2.37E-05,64,75,37,397867,36827,16744807,14929,8828,8109,3362,1659,Tag0,unknown
1.56778E+12,0,41,9.01E-06,61,83,37,1390489,80075,65455,24179,16749117,32259,16752514,21162,Tag0,unknown
1.56778E+12,0,76,1.67E-05,47,77,55,470018,69362,11946,17075,16761045,17405,16747744,6957,Tag0,unknown
1.56778E+12,0,67,1.47E-05,41,74,46,278739,30704,4735,10606,11535,9788,6282,5895,Tag0,unknown
1.56778E+12,0,-258,-5.67E-05,77,66,46,90167,26534,9427,7279,16580,16746458,9848,6610,Tag0,unknown
1.56778E+12,0,-282,-6.20E-05,84,57,40,56934,35236,16752695,14872,19773,16771259,8196,2074,Tag0,unknown
1.56778E+12,0,-41,-9.01E-06,83,53,40,625705,212611,15979,23941,12836,16751323,22639,7055,Tag0,unknown
1.56778E+12,0,-285,-6.26E-05,60,29,41,16758677,16757526,520,1481,1659,1553,508,736,Tag0,unknown
1.56778E+12,0,64,1.41E-05,27,41,41,137351,16749356,21566,5345,3969,4723,11981,4573,Tag0,unknown
1.56778E+12,0,82,1.80E-05,11,43,41,16771704,16749991,9567,4759,2713,5298,10472,1523,Tag0,unknown
1.56778E+12,0,45,9.89E-06,29,60,40,16769292,7503,2032,9212,3396,11920,5228,670,Tag0,unknown
1.56778E+12,0,-291,-6.39E-05,60,96,42,55002,8312,16717,3295,5157,8517,2947,1394,Tag0,unknown
1.56778E+12,0,75,1.65E-05,81,88,44,75800,30705,7085,12265,10864,20708,10685,4899,Tag0,unknown
1.56778E+12,0,-132,-2.90E-05,84,100,42,500158,96124,71608,163297,13377,16757799,16753891,13473,Tag0,unknown
1.56778E+12,0,65,1.43E-05,74,96,42,1788734,97287,16751810,15429,25297,16750486,21913,14263,Tag0,unknown
1.56778E+12,0,50,1.10E-05,61,97,42,823709,16744789,16774525,24131,10085,14695,6198,7959,Tag0,unknown
1.56778E+12,0,50,1.10E-05,37,91,40,112656,41572,21394,10411,14926,10102,6021,2406,Tag0,unknown
1.56778E+12,0,67,1.47E-05,34,75,40,1034016,201327,16761268,16758499,30125,32066,18656,7811,Tag0,unknown
1.56778E+12,0,-282,-6.20E-05,48,61,40,76268,13962,1139,2742,6051,14298,6458,2071,Tag0,unknown
1.56778E+12,0,-331,-7.27E-05,48,44,33,713777,115185,16764335,14048,20091,28849,17114,5237,Tag0,unknown
1.56778E+12,0,-279,-6.13E-05,78,48,42,669001,25513,12469,11042,14573,30803,20360,4380,Tag0,unknown
1.56778E+12,0,70,1.54E-05,97,41,42,29637,16769372,9350,13060,26229,16750528,25064,7782,Tag0,unknown
1.56778E+12,0,59,1.30E-05,80,35,46,1043241,285222,19427,8541,16747603,16769770,23370,7533,Tag0,unknown
1.56778E+12,0,10,2.20E-06,93,34,53,69633,23029,7941,5187,14494,11575,3894,3639,Tag0,unknown
1.56778E+12,0,41,9.01E-06,75,47,53,16764878,3111,4078,386,240,912,1385,253,Tag0,unknown
1.56778E+12,0,19,4.17E-06,77,50,42,103985,100595,16745889,16757096,28014,151296,16763872,10114,Tag0,unknown
1.56778E+12,0,103,2.26E-05,66,50,42,38600,16767793,4268,829,3514,6107,4371,2013,Tag0,unknown
1.56778E+12,0,25,5.49E-06,51,29,44,502312,358844,5201,14466,20873,16744451,28573,14667,Tag0,unknown
1.56778E+12,0,107,2.35E-05,51,1,50,1333842,281744,6759,9221,7194,16757390,2187,2971,Tag0,unknown
1.56778E+12,0,122,2.68E-05,34,1,50,50391,16765226,1540,3809,5997,9780,3325,3377,Tag0,unknown
1.56778E+12,0,73,1.60E-05,61,1,50,16771010,28848,10367,3457,13512,85089,11189,9528,Tag0,unknown
1.56778E+12,0,-298,-6.55E-05,81,8,50,75195,5626,3661,2259,5490,10513,4575,7023,Tag0,unknown
1.56778E+12,0,60,1.32E-05,84,20,40,796949,90724,6715,14592,8192,32273,32123,7784,Tag0,unknown
1.56778E+12,0,125,2.75E-05,83,48,39,114557,91537,36378,19213,11373,16752901,16758779,16570,Tag0,unknown
1.56778E+12,0,8,1.76E-06,61,56,38,429708,16762713,8833,8981,6720,17788,12487,1322,Tag0,unknown
1.56778E+12,0,-596,-1.31E-04,53,51,38,800659,123205,16758927,12536,16756827,37248,23031,19455,Tag0,unknown
1.56778E+12,51,-2048,-4.50E-04,53,51,38,734881,321294,16756704,136227,96320,48094,23963,7251,Tag0,unknown
1.56778E+12,51,29,6.37E-06,53,51,38,896749,16750170,16747920,16768077,22077,18956,8784,3506,Tag0,unknown
timestampMs,poorSignal,eegRawValue,eegRawValueVolts,attention,meditation,blinkStrength,delta,theta,alphaLow,alphaHigh,betaLow,betaHigh,gammaLow,gammaMid,tagEvent,location
1.56663E+12,51,550,1.21E-04,0,0,0,1958364,16771532,16760616,16762296,24421,17367,2894,911,Tag0,unknown
1.56663E+12,0,452,9.93E-05,0,0,0,289789,5673,1303,1076,2305,388,16777121,16777118,Tag0,unknown
1.56663E+12,51,-276,-6.06E-05,0,0,0,1349772,16744774,25858,27154,22178,12751,1874,1322,Tag0,unknown
1.56663E+12,26,-1863,-4.09E-04,0,0,0,653414,15608,898,7476,3872,3358,603,129,Tag0,unknown
1.56663E+12,0,-1030,-2.26E-04,0,0,0,2800215,86031,28165,16764571,6504,23008,6484,2821,Tag0,unknown
1.56663E+12,0,-55,-1.21E-05,0,0,0,1331702,16754770,4172,17144,2731,7949,1053,406,Tag0,unknown
1.56663E+12,51,55,1.21E-05,0,0,45,1778647,632920,159229,160580,454785,555673,582966,295047,Tag0,unknown
1.56663E+12,51,-362,-7.95E-05,0,0,45,507073,290672,119204,57537,16760204,7588,5226,4505,Tag0,unknown
1.56663E+12,51,42,9.23E-06,0,0,45,1715543,66584,9851,14428,16754022,16766639,8528,1477,Tag0,unknown
1.56663E+12,25,44,9.67E-06,0,0,45,10983,3940,1210,763,577,317,16777098,67,Tag0,unknown
1.56663E+12,25,-634,-1.39E-04,0,0,45,417618,320577,25925,68995,17288,7872,20287,1483,Tag0,unknown
1.56663E+12,25,340,7.47E-05,0,0,45,36469,16754917,11299,4084,2855,2069,2230,781,Tag0,unknown
1.56663E+12,0,-67,-1.47E-05,51,51,40,567540,3915,9165,3338,3613,2242,244,349,Tag0,unknown
1.56663E+12,0,165,3.63E-05,34,44,40,1268313,978559,212530,59268,16749800,16749868,16752809,21330,Tag0,unknown
1.56663E+12,0,-119,-2.61E-05,26,26,40,3339040,220031,8201,8576,8672,11016,3544,3353,Tag0,unknown
1.56663E+12,0,-103,-2.26E-05,8,23,41,937416,541963,37525,16757560,9740,12843,12173,3690,Tag0,unknown
1.56663E+12,0,-20,-4.39E-06,1,3,41,536680,16764658,7730,5250,2975,1718,2648,1248,Tag0,unknown
1.56663E+12,0,39,8.57E-06,4,4,41,1348897,16764644,10341,3814,4527,3863,6346,1337,Tag0,unknown
1.56663E+12,0,-141,-3.10E-05,13,24,41,1367770,41301,16750662,21187,29884,8510,7246,2490,Tag0,unknown
1.56663E+12,0,308,6.77E-05,20,24,41,1809878,597353,150488,32315,17221,19342,12729,10754,Tag0,unknown
1.56663E+12,0,867,1.91E-04,30,13,47,242967,32468,2151,775,4956,1835,1625,1130,Tag0,unknown
1.56663E+12,0,24,5.27E-06,47,26,34,1700627,33897,85038,27503,30054,27424,7814,4439,Tag0,unknown
1.56663E+12,0,4,8.79E-07,47,34,34,1878412,277824,16750263,219656,16754416,30143,25537,9715,Tag0,unknown
1.56663E+12,0,24,5.27E-06,78,37,41,16765560,10115,4111,1681,2260,2305,2072,1038,Tag0,unknown
1.56663E+12,0,-157,-3.45E-05,67,53,47,904449,490034,97625,78804,70725,21651,18533,10512,Tag0,unknown
1.56663E+12,0,27,5.93E-06,41,37,55,2013500,252650,32000,27992,16547,11352,2988,1392,Tag0,unknown
1.56663E+12,0,-337,-7.40E-05,57,30,37,208591,4079,1249,1626,1401,745,364,275,Tag0,unknown
1.56663E+12,0,-339,-7.45E-05,48,26,37,1216939,259737,16756426,16757059,13958,31763,7201,3246,Tag0,unknown
1.56663E+12,0,124,2.72E-05,50,14,37,1359267,161710,15677,5364,16011,6516,3941,3104,Tag0,unknown
1.56663E+12,0,1513,3.32E-04,61,8,37,210167,160588,8298,8680,13034,9529,8171,1020,Tag0,unknown
1.56663E+12,26,44,9.67E-06,61,8,37,1099250,17718,4222,18953,15398,8337,1142,242,Tag0,unknown
1.56663E+12,51,-345,-7.58E-05,61,8,37,941709,32618,7215,6143,2209,1358,581,314,Tag0,unknown
1.56663E+12,0,274,6.02E-05,44,3,37,440623,167201,68813,17541,30903,17701,12655,3042,Tag0,unknown
1.56663E+12,0,-554,-1.22E-04,37,1,37,1788962,807903,16759904,16771465,16753419,16753106,19685,9512,Tag0,unknown
1.56663E+12,0,-306,-6.72E-05,51,7,48,2603806,211270,16769724,16746537,16757243,26049,3380,4945,Tag0,unknown
1.56663E+12,0,-129,-2.83E-05,56,38,48,144133,33474,49168,85941,19170,22985,22763,2026,Tag0,unknown
1.56663E+12,0,-294,-6.46E-05,78,43,47,1377794,239493,16757569,227908,54246,47199,25964,11998,Tag0,unknown
1.56663E+12,0,-283,-6.22E-05,74,44,55,444889,877784,76388,16765192,29724,16750983,13100,7917,Tag0,unknown
1.56663E+12,0,23,5.05E-06,77,29,55,344847,100701,15482,2091,11770,19504,3159,1508,Tag0,unknown
1.56663E+12,0,74,1.63E-05,93,20,38,947037,7168,13862,5556,8596,14008,5147,7591,Tag0,unknown
1.56663E+12,0,-650,-1.43E-04,70,16,40,236704,7985,4366,1998,7209,1360,774,16777167,Tag0,unknown
1.56663E+12,0,72,1.58E-05,69,14,43,2918948,224870,6120,23908,5454,11192,10619,20038,Tag0,unknown
1.56663E+12,0,73,1.60E-05,64,40,43,794660,16748897,7138,16752223,7143,12825,11203,6352,Tag0,unknown
1.56663E+12,0,-59,-1.30E-05,54,29,43,117439,16769293,9833,14346,16623,17509,5029,15593,Tag0,unknown
1.56663E+12,0,23,5.05E-06,38,29,41,1874098,142576,16749375,17937,5491,4768,3935,1589,Tag0,unknown
1.56663E+12,0,2,4.39E-07,38,37,41,422604,159035,29978,11483,22299,9216,11258,3332,Tag0,unknown
1.56663E+12,0,56,1.23E-05,53,20,41,221747,11045,3949,1268,7123,9010,1698,1601,Tag0,unknown
1.56663E+12,0,90,1.98E-05,40,20,41,16774964,55846,4964,30275,12245,12137,6331,3593,Tag0,unknown
1.56663E+12,0,87,1.91E-05,74,23,41,955759,17957,975,18185,10253,14057,9987,4948,Tag0,unknown
1.56663E+12,0,-264,-5.80E-05,96,26,41,76199,16754937,14703,4395,6156,16420,14227,7284,Tag0,unknown
1.56663E+12,0,67,1.47E-05,88,30,41,401908,14746,3548,4691,5441,6191,5876,1012,Tag0,unknown
1.56663E+12,0,68,1.49E-05,90,23,37,219159,34228,3503,12562,12420,10546,6469,2795,Tag0,unknown
1.56663E+12,0,-324,-7.12E-05,69,13,37,16761201,126596,13180,32332,21573,15470,15455,2710,Tag0,unknown
1.56663E+12,0,73,1.60E-05,50,11,42,1367342,238198,6741,70930,21734,24383,5743,3202,Tag0,unknown
1.56663E+12,0,88,1.93E-05,57,4,42,1686267,20274,3524,7197,19191,21270,17123,10383,Tag0,unknown
1.56663E+12,0,-39,-8.57E-06,57,8,37,1313869,142554,9117,17383,5545,14317,2809,1001,Tag0,unknown
1.56663E+12,0,-309,-6.79E-05,44,11,52,1226762,234024,16757029,16752223,12605,8295,16617,2020,Tag0,unknown
1.56663E+12,0,70,1.54E-05,30,21,42,469917,234887,162408,27649,16690,10864,12354,3895,Tag0,unknown
1.56663E+12,0,-226,-4.97E-05,11,44,42,698627,16769404,85961,32191,18773,19024,16398,7299,Tag0,unknown
timestampMs,poorSignal,eegRawValue,eegRawValueVolts,attention,meditation,blinkStrength,delta,theta,alphaLow,alphaHigh,betaLow,betaHigh,gammaLow,gammaMid,tagEvent,location
1.56778E+12,25,42,9.23E-06,0,0,39,0,0,0,0,0,0,2,2,Tag0,unknown
1.56778E+12,25,16,3.52E-06,0,0,39,56,2,0,1,0,3,1,1,Tag0,unknown
1.56778E+12,0,101,2.22E-05,0,0,39,409308,35945,28662,5692,5382,10054,8043,5323,Tag0,unknown
1.56778E+12,0,341,7.49E-05,0,0,39,409308,35945,28662,5692,5382,10054,8043,5323,Tag0,unknown
1.56778E+12,0,20,4.39E-06,0,0,46,157352,20215,5199,6931,3704,5694,2109,2455,Tag0,unknown
1.56778E+12,0,-124,-2.72E-05,43,35,42,215505,33072,9431,16751627,15874,18053,7867,5005,Tag0,unknown
1.56778E+12,0,56,1.23E-05,40,34,42,97212,18473,710,8081,2905,2106,3862,856,Tag0,unknown
1.56778E+12,0,66,1.45E-05,40,34,42,97212,18473,710,8081,2905,2106,3862,856,Tag0,unknown
1.56778E+12,0,0,0,47,21,42,88476,141292,31236,30002,15400,10095,10812,5186,Tag0,unknown
1.56778E+12,0,-372,-8.17E-05,63,34,41,941127,135197,8149,100727,16746356,83329,16750354,20378,Tag0,unknown
1.56778E+12,0,70,1.54E-05,67,53,48,161782,467397,653180,152319,135658,143853,16775274,16769783,Tag0,unknown
1.56778E+12,0,-26,-5.71E-06,30,47,38,1139622,1306868,191556,16755292,16762524,96290,33637,15935,Tag0,unknown
1.56778E+12,0,118,2.59E-05,70,34,43,389459,38665,6841,6995,12867,16749315,13411,8261,Tag0,unknown
1.56778E+12,0,-282,-6.20E-05,50,35,50,786199,67843,16757342,6952,7682,12215,12571,3113,Tag0,unknown
1.56778E+12,0,25,5.49E-06,70,4,50,521792,16760395,7733,3406,7187,15613,10097,15956,Tag0,unknown
1.56778E+12,0,53,1.16E-05,100,17,43,567178,16752935,3268,12997,7117,14988,26600,4411,Tag0,unknown
1.56778E+12,0,59,1.30E-05,100,48,43,366197,29504,11882,16751073,23655,27443,25340,10803,Tag0,unknown
1.56778E+12,0,25,5.49E-06,100,48,39,366197,29504,11882,16751073,23655,27443,25340,10803,Tag0,unknown
1.56778E+12,0,-262,-5.76E-05,80,30,39,80177,64520,22251,32505,10622,16746422,90511,10594,Tag0,unknown
1.56778E+12,0,-306,-6.72E-05,83,29,39,5440,12800,7163,11415,15389,16759554,29993,10329,Tag0,unknown
1.56778E+12,0,59,1.30E-05,64,34,42,89481,16746087,30991,16747941,25795,31396,16747316,26130,Tag0,unknown
1.56778E+12,0,-292,-6.42E-05,96,35,46,472960,16752939,7638,5669,16755064,16762693,16759602,8885,Tag0,unknown
1.56778E+12,0,65,1.43E-05,81,29,37,130897,66974,9480,10324,8849,11616,4488,1574,Tag0,unknown
1.56778E+12,0,49,1.08E-05,57,20,37,101675,16748615,5553,2820,16199,9213,9718,12234,Tag0,unknown
1.56778E+12,0,88,1.93E-05,44,1,53,1045413,39785,7765,4507,13972,12201,4524,3152,Tag0,unknown
1.56778E+12,0,-278,-6.11E-05,40,1,53,215157,27127,1520,2284,4979,19221,7266,2633,Tag0,unknown
1.56778E+12,0,65,1.43E-05,53,4,40,5236,11761,22842,24071,21202,26003,24853,8245,Tag0,unknown
1.56778E+12,0,100,2.20E-05,43,20,45,71067,15939,731,5944,882,1688,1632,855,Tag0,unknown
1.56778E+12,0,-325,-7.14E-05,34,54,50,125957,184322,171405,11041,21362,23598,16772132,6145,Tag0,unknown
1.56778E+12,0,-300,-6.59E-05,7,87,56,946954,16752989,31971,8641,6599,6009,4651,7354,Tag0,unknown
1.56778E+12,0,89,1.96E-05,1,84,44,821589,95872,31242,45044,16766835,16764734,16772017,17528,Tag0,unknown
1.56778E+12,0,-281,-6.17E-05,1,75,60,78817,144042,24772,3178,1655,11426,13697,10347,Tag0,unknown
1.56778E+12,0,23,5.05E-06,1,54,60,912364,51230,13537,22352,30932,10746,15611,5433,Tag0,unknown
1.56778E+12,0,-345,-7.58E-05,4,43,47,319702,83709,25109,14090,13461,13689,8982,9307,Tag0,unknown
1.56778E+12,0,-42,-9.23E-06,1,23,55,1645630,2026808,105345,335953,380225,244191,57113,91263,Tag0,unknown
1.56778E+12,0,-170,-3.74E-05,1,48,54,771117,193211,49997,119508,27936,26440,28824,4148,Tag0,unknown
1.56778E+12,0,125,2.75E-05,1,51,54,2064975,946672,135586,199107,168018,36789,16759161,136571,Tag0,unknown
1.56778E+12,0,103,2.26E-05,1,67,54,396671,8370,10836,9095,4578,2690,6098,723,Tag0,unknown
1.56778E+12,0,80,1.76E-05,10,80,54,16770474,16767448,11462,16750078,13215,16759462,16749998,11482,Tag0,unknown
1.56778E+12,0,76,1.67E-05,17,43,40,2702279,397555,15763,11157,17498,16747506,95799,12143,Tag0,unknown
1.56778E+12,0,89,1.96E-05,20,56,42,132026,16762546,22886,20597,6344,8271,14234,4441,Tag0,unknown
1.56778E+12,0,76,1.67E-05,23,38,39,1492047,181768,16766934,10410,10693,16747016,17507,3676,Tag0,unknown
1.56778E+12,0,42,9.23E-06,1,23,38,1829140,550049,16752142,16750577,23924,16759894,16767522,21144,Tag0,unknown
1.56778E+12,0,-274,-6.02E-05,3,40,43,189741,65879,17627,4399,16195,8966,12130,1990,Tag0,unknown
1.56778E+12,0,-258,-5.67E-05,10,37,44,355201,24509,12743,8654,15226,7899,3957,7104,Tag0,unknown
1.56778E+12,0,-107,-2.35E-05,16,47,44,1716439,16772904,17377,16763866,16764890,27404,30684,11604,Tag0,unknown
1.56778E+12,0,87,1.91E-05,41,53,44,119017,16776668,8439,20804,23697,16767460,22448,7260,Tag0,unknown
1.56778E+12,0,-93,-2.04E-05,30,50,45,16757832,16765074,6176,2999,687,1813,2082,481,Tag0,unknown
1.56778E+12,0,61,1.34E-05,41,43,38,163160,22915,7107,3974,5060,11566,5506,2921,Tag0,unknown
1.56778E+12,0,-317,-6.97E-05,40,50,38,953658,16747642,16745200,8073,9959,9446,7437,2404,Tag0,unknown
1.56778E+12,0,-64,-1.41E-05,16,56,36,114188,22025,919,9115,5150,1752,722,2129,Tag0,unknown
1.56778E+12,0,-313,-6.88E-05,26,48,36,573077,16757838,3513,1287,7192,3567,7769,940,Tag0,unknown
1.56778E+12,0,66,1.45E-05,10,44,36,259498,16776086,8794,11680,16827,5999,8592,1462,Tag0,unknown
1.56778E+12,0,87,1.91E-05,34,40,55,16753533,10007,15221,25178,18579,16762910,23395,13388,Tag0,unknown
1.56778E+12,0,-119,-2.61E-05,44,24,56,2000547,191014,12799,25531,23414,16770489,16773614,9011,Tag0,unknown
1.56778E+12,51,-488,-1.07E-04,44,24,56,888462,310867,120261,154875,89286,16748089,12164,5867,Tag0,unknown
1.56778E+12,51,-724,-1.59E-04,44,24,56,1903731,353633,56328,116930,59384,114222,16753359,143388,Tag0,unknown
1.56778E+12,51,1791,3.94E-04,44,24,56,1271109,150983,42775,66425,56990,16757453,16748492,3791,Tag0,unknown
1.56778E+12,51,-2048,-4.50E-04,44,24,56,90019,152840,206602,206820,175654,595158,229434,53554,Tag0,unknown
timestampMs,poorSignal,eegRawValue,eegRawValueVolts,attention,meditation,blinkStrength,delta,theta,alphaLow,alphaHigh,betaLow,betaHigh,gammaLow,gammaMid,tagEvent,location
1.56778E+12,25,43,9.45E-06,0,0,44,0,0,0,0,0,0,0,0,Tag0,unknown
1.56778E+12,25,44,9.67E-06,0,0,44,0,0,0,0,0,0,0,0,Tag0,unknown
1.56778E+12,25,-259,-5.69E-05,0,0,44,25,2,1,0,2,1,1,1,Tag0,unknown
1.56778E+12,0,-84,-1.85E-05,0,0,34,140230,16761671,14041,9625,7316,7404,4304,5120,Tag0,unknown
1.56778E+12,0,9,1.98E-06,0,0,34,262813,212483,85350,6474,25081,11497,11353,6272,Tag0,unknown
1.56778E+12,0,50,1.10E-05,47,51,34,143480,5453,1623,4183,1046,1381,447,1618,Tag0,unknown
1.56778E+12,0,64,1.41E-05,60,53,36,594197,34192,13557,9422,16878,29895,16758831,6334,Tag0,unknown
1.56778E+12,0,49,1.08E-05,77,61,36,675095,16762039,12017,30175,15905,28144,24999,6467,Tag0,unknown
1.56778E+12,0,81,1.78E-05,81,54,36,696465,219803,3947,9112,10784,27868,16764701,8361,Tag0,unknown
1.56778E+12,0,288,6.33E-05,69,51,34,712065,273360,55088,27471,10047,19213,28725,7201,Tag0,unknown
1.56778E+12,0,34,7.47E-06,78,61,42,553403,16757488,20557,28368,6489,16748591,17286,11576,Tag0,unknown
1.56778E+12,0,11,2.42E-06,84,51,42,16758134,30307,2495,5682,21299,24186,16817,4935,Tag0,unknown
1.56778E+12,0,100,2.20E-05,87,63,43,349406,84766,17145,16889,16753344,17502,20652,9808,Tag0,unknown
1.56778E+12,0,2,4.39E-07,100,66,43,25279,10291,11124,2631,4203,4845,3418,699,Tag0,unknown
1.56778E+12,0,72,1.58E-05,96,61,43,141748,68207,22902,30304,16747917,16746610,16748680,9351,Tag0,unknown
1.56778E+12,0,6,1.32E-06,96,74,42,66701,11213,13996,1919,11820,16899,22050,9724,Tag0,unknown
1.56778E+12,0,35,7.69E-06,100,70,45,271491,16744396,5122,5195,5295,9250,5791,787,Tag0,unknown
1.56778E+12,0,66,1.45E-05,100,61,45,509508,32947,4746,23358,10818,29947,16744727,8933,Tag0,unknown
1.56778E+12,0,90,1.98E-05,100,60,45,16760079,16748324,7236,16585,18342,20437,21487,5075,Tag0,unknown
1.56778E+12,0,259,5.69E-05,100,51,45,11423,8906,7595,762,19574,16745434,11800,8528,Tag0,unknown
1.56778E+12,0,40,8.79E-06,100,54,34,38543,16330,10384,4085,13491,13783,17353,2167,Tag0,unknown
1.56778E+12,0,39,8.57E-06,100,60,34,33022,13451,3505,8823,2725,12627,2292,580,Tag0,unknown
1.56778E+12,0,-331,-7.27E-05,97,54,34,22935,23403,1955,6555,7391,25781,12698,3010,Tag0,unknown
1.56778E+12,0,-322,-7.08E-05,87,61,34,144382,19478,9412,5126,13149,20241,6161,8353,Tag0,unknown
1.56778E+12,0,82,1.80E-05,80,69,34,90428,11825,14825,4673,937,5623,3377,1070,Tag0,unknown
1.56778E+12,0,28,6.15E-06,87,70,34,28564,5193,13237,12152,10622,16744606,13014,6248,Tag0,unknown
1.56778E+12,0,-44,-9.67E-06,91,69,34,13773,17916,989,7350,11064,16751013,15395,7743,Tag0,unknown
1.56778E+12,0,67,1.47E-05,78,64,42,223734,42474,5813,17696,14454,16842,12426,5416,Tag0,unknown
1.56778E+12,0,86,1.89E-05,81,50,42,99001,148098,10043,23880,22307,16757873,7082,6407,Tag0,unknown
1.56778E+12,0,72,1.58E-05,77,51,42,16182,6822,21747,1913,6400,19684,10119,8625,Tag0,unknown
1.56778E+12,0,-265,-5.82E-05,66,67,43,30223,13871,16413,21725,4989,21653,19342,8483,Tag0,unknown
1.56778E+12,0,18,3.96E-06,60,75,44,215479,16752130,12025,8428,13826,3271,2805,1849,Tag0,unknown
1.56778E+12,0,-118,-2.59E-05,54,83,39,112095,16746795,13929,9395,9235,7759,4764,2390,Tag0,unknown
1.56778E+12,0,58,1.27E-05,35,67,39,62811,16759314,4861,710,6497,3238,3580,1975,Tag0,unknown
1.56778E+12,0,50,1.10E-05,24,48,39,1806050,187562,21898,5283,10267,16747339,19423,4186,Tag0,unknown
1.56778E+12,0,40,8.79E-06,30,43,39,896983,16754765,4808,4104,2192,6413,2184,3019,Tag0,unknown
1.56778E+12,0,4,8.79E-07,27,43,34,57690,31110,4799,14383,5375,4488,7241,1274,Tag0,unknown
1.56778E+12,0,40,8.79E-06,29,47,39,629711,130568,17160,18366,15903,19781,13061,4354,Tag0,unknown
1.56778E+12,0,48,1.05E-05,23,61,40,54706,27088,15387,4302,988,2476,4407,1857,Tag0,unknown
1.56778E+12,0,11,2.42E-06,14,57,45,1708162,466505,16755835,12050,15004,24811,28088,9838,Tag0,unknown
1.56778E+12,0,71,1.56E-05,21,63,45,182635,31255,25752,16745361,21724,16399,10559,14027,Tag0,unknown
1.56778E+12,0,64,1.41E-05,41,61,40,19579,25413,472,10744,16744351,28694,9574,4967,Tag0,unknown
1.56778E+12,0,25,5.49E-06,50,61,40,159726,69306,28518,25349,13239,21288,9359,5019,Tag0,unknown
1.56778E+12,0,86,1.89E-05,67,77,41,16760404,16464,3847,25694,7375,17682,13803,10162,Tag0,unknown
1.56778E+12,0,58,1.27E-05,74,77,36,13470,2329,4071,3561,3935,3579,3109,1834,Tag0,unknown
1.56778E+12,0,11,2.42E-06,61,78,36,50261,18906,2796,1476,8758,4421,2571,1498,Tag0,unknown
1.56778E+12,0,38,8.35E-06,70,83,36,6505,3814,167,16754356,12855,23921,10617,3240,Tag0,unknown
1.56778E+12,0,34,7.47E-06,70,81,36,26410,10665,5663,14901,14842,14123,25715,2805,Tag0,unknown
1.56778E+12,0,59,1.30E-05,75,78,36,8684,14810,8230,13182,4831,16828,13921,5201,Tag0,unknown
1.56778E+12,0,84,1.85E-05,84,81,43,15205,13974,7482,3318,9829,16725,24346,3278,Tag0,unknown
1.56778E+12,0,-59,-1.30E-05,81,75,36,16766423,28270,7501,31440,23766,32535,18144,5044,Tag0,unknown
1.56778E+12,0,-293,-6.44E-05,78,70,36,285610,16695,4499,6822,2299,9383,2835,1541,Tag0,unknown
1.56778E+12,0,24,5.27E-06,83,74,36,3028,7430,5968,6683,5341,22618,19729,5465,Tag0,unknown
1.56778E+12,0,93,2.04E-05,83,78,36,16744419,9022,3195,16089,2346,7688,3705,2883,Tag0,unknown
1.56778E+12,0,17,3.74E-06,75,80,36,62492,14973,9843,1732,3748,4197,4358,1602,Tag0,unknown
1.56778E+12,0,-71,-1.56E-05,83,70,36,7434,12138,10774,4548,68287,27914,14996,14665,Tag0,unknown
1.56778E+12,0,39,8.57E-06,60,69,42,246447,16766234,12905,2745,920,5884,3225,388,Tag0,unknown
1.56778E+12,25,1791,3.94E-04,60,69,39,478885,916335,687597,446072,152530,237631,149725,71012,Tag0,unknown
1.56778E+12,51,43,9.45E-06,60,69,39,1213023,16747051,23714,78550,16775242,16745244,17319,8561,Tag0,unknown
timestampMs,poorSignal,eegRawValue,eegRawValueVolts,attention,meditation,blinkStrength,delta,theta,alphaLow,alphaHigh,betaLow,betaHigh,gammaLow,gammaMid,tagEvent,location
1.56778E+12,25,43,9.45E-06,0,0,53,0,0,0,0,0,0,0,1,Tag0,unknown
1.56778E+12,25,-102,-2.24E-05,0,0,53,29,3,1,3,1,1,0,1,Tag0,unknown
1.56778E+12,0,-229,-5.03E-05,0,0,35,50952,16748261,9535,23670,6013,12526,9809,7716,Tag0,unknown
1.56778E+12,0,32,7.03E-06,0,0,56,1407333,194058,13978,17864,16754248,16765499,26656,5808,Tag0,unknown
1.56778E+12,0,81,1.78E-05,0,0,47,45745,16750754,9110,5789,1984,3938,5548,1582,Tag0,unknown
1.56778E+12,0,40,8.79E-06,51,51,47,801583,21984,19570,6801,5932,8047,3676,1460,Tag0,unknown
1.56778E+12,0,12,2.64E-06,53,48,47,1956002,412004,16775267,8200,18263,16762534,25852,20563,Tag0,unknown
1.56778E+12,0,36,7.91E-06,77,57,47,16756644,23891,16749872,13946,16565,16756221,19836,11166,Tag0,unknown
1.56778E+12,0,16,3.52E-06,87,67,47,16752788,16774692,16753989,31247,28724,16749773,17785,13262,Tag0,unknown
1.56778E+12,0,19,4.17E-06,83,66,47,97700,25776,11936,16745927,18351,16971,16757240,7416,Tag0,unknown
1.56778E+12,0,-270,-5.93E-05,77,80,37,44010,16767951,27419,16579,11809,9771,11356,2867,Tag0,unknown
1.56778E+12,0,37,8.13E-06,44,78,37,216242,11666,5287,1874,1333,1442,691,16777178,Tag0,unknown
1.56778E+12,0,68,1.49E-05,43,83,37,152271,2748,5298,3336,4157,2583,1855,1428,Tag0,unknown
1.56778E+12,0,74,1.63E-05,35,81,37,31714,16761083,16746028,23627,30481,17949,13153,2042,Tag0,unknown
1.56778E+12,0,-84,-1.85E-05,38,77,37,340351,89382,8059,26002,4583,14526,6895,8286,Tag0,unknown
1.56778E+12,0,43,9.45E-06,69,75,37,29422,5266,2471,4720,4135,6976,1585,1137,Tag0,unknown
1.56778E+12,0,29,6.37E-06,84,60,35,13946,19623,2565,9942,18236,19785,5239,2408,Tag0,unknown
1.56778E+12,0,122,2.68E-05,75,57,35,1327215,63516,16756821,16748959,16938,16623,9339,10310,Tag0,unknown
1.56778E+12,0,39,8.57E-06,63,60,35,370697,9331,3153,847,1281,888,869,780,Tag0,unknown
1.56778E+12,0,7,1.54E-06,53,57,35,214076,16750307,21931,4283,6513,21967,6124,3282,Tag0,unknown
1.56778E+12,0,7,1.54E-06,47,70,35,83128,8664,7544,17900,13625,13307,9333,7845,Tag0,unknown
1.56778E+12,0,-258,-5.67E-05,57,63,41,81280,20031,7185,834,5506,4960,5503,1232,Tag0,unknown
1.56778E+12,0,-264,-5.80E-05,87,70,41,16761620,19750,13027,26505,8605,18129,9693,5682,Tag0,unknown
1.56778E+12,0,33,7.25E-06,96,70,41,7542,7389,8310,7879,17960,27202,15864,4950,Tag0,unknown
1.56778E+12,0,27,5.93E-06,88,61,41,15735,28067,9699,8984,21734,16839,7696,6368,Tag0,unknown
1.56778E+12,0,0,0,78,70,41,29521,16745056,19166,12944,8753,7592,6136,5088,Tag0,unknown
1.56778E+12,0,108,2.37E-05,75,53,41,95682,22040,5998,2148,24376,13113,9782,4368,Tag0,unknown
1.56778E+12,0,26,5.71E-06,57,51,41,16751991,16746478,18254,7742,21799,19225,10416,9159,Tag0,unknown
1.56778E+12,0,8,1.76E-06,41,64,41,15909,13161,13293,22404,15666,5237,12270,4304,Tag0,unknown
1.56778E+12,0,29,6.37E-06,34,63,41,16749413,29556,10435,5827,3682,2851,3862,2596,Tag0,unknown
1.56778E+12,0,19,4.17E-06,38,67,41,15292,19921,4921,4459,5463,16267,4405,12735,Tag0,unknown
1.56778E+12,0,3,6.59E-07,47,63,41,16750800,23080,5633,4608,4304,21792,12586,4284,Tag0,unknown
1.56778E+12,0,-291,-6.39E-05,74,53,41,13728,9758,11057,4380,11470,19423,6678,5564,Tag0,unknown
1.56778E+12,0,34,7.47E-06,100,43,41,16752338,23301,1762,10823,27758,20307,4921,7475,Tag0,unknown
1.56778E+12,0,69,1.52E-05,94,47,41,10458,14847,10352,4951,24196,11431,10776,10754,Tag0,unknown
1.56778E+12,0,85,1.87E-05,81,44,41,145244,14766,766,3160,3647,3751,4490,2566,Tag0,unknown
1.56778E+12,0,11,2.42E-06,60,35,43,460416,47449,13873,8488,19745,21825,11782,7284,Tag0,unknown
1.56778E+12,0,12,2.64E-06,61,50,36,92293,9590,11747,14733,4624,22237,15460,4088,Tag0,unknown
1.56778E+12,0,64,1.41E-05,51,60,44,73409,8779,7078,8865,9087,4542,5218,1329,Tag0,unknown
1.56778E+12,0,66,1.45E-05,37,67,45,16765235,7809,4336,653,2411,869,137,16777120,Tag0,unknown
1.56778E+12,0,7,1.54E-06,43,77,36,44815,4741,1590,3195,7886,2509,2528,1693,Tag0,unknown
1.56778E+12,0,294,6.46E-05,21,74,36,16748106,16751597,9968,19506,1997,7524,5632,4194,Tag0,unknown
1.56778E+12,0,22,4.83E-06,24,54,47,26546,16759734,5998,2849,5665,14484,2279,2949,Tag0,unknown
1.56778E+12,0,34,7.47E-06,21,50,47,755907,76531,20151,6390,11167,4353,5982,1476,Tag0,unknown
1.56778E+12,0,107,2.35E-05,17,48,42,288340,14436,1623,2962,3990,3661,6811,2132,Tag0,unknown
1.56778E+12,0,-154,-3.38E-05,26,54,37,16749067,4023,12557,5314,4548,4041,1698,2501,Tag0,unknown
1.56778E+12,0,38,8.35E-06,21,67,37,115232,51769,10181,16776252,18888,16745445,14722,7048,Tag0,unknown
1.56778E+12,0,25,5.49E-06,40,78,37,16747557,13203,15354,3482,4897,6600,2991,1842,Tag0,unknown
1.56778E+12,0,12,2.64E-06,44,90,44,16775548,11275,7581,7059,3944,6707,2549,916,Tag0,unknown
1.56778E+12,0,-277,-6.09E-05,38,77,44,155998,94100,21400,27666,20850,17445,17533,4869,Tag0,unknown
1.56778E+12,0,42,9.23E-06,47,75,44,13567,25108,11981,6452,9261,15522,17756,4658,Tag0,unknown
1.56778E+12,0,34,7.47E-06,44,83,44,8598,13842,16752642,14250,19167,15096,9957,4971,Tag0,unknown
1.56778E+12,0,18,3.96E-06,44,83,44,8598,13842,16752642,14250,19167,15096,9957,4971,Tag0,unknown
1.56778E+12,0,-268,-5.89E-05,57,94,43,8148,2768,9558,21390,11974,12750,12318,3703,Tag0,unknown
1.56778E+12,0,49,1.08E-05,60,88,43,27318,16749965,20583,16761394,10752,20405,14853,3757,Tag0,unknown
1.56778E+12,0,-266,-5.84E-05,47,84,44,367013,16748994,27659,5041,3983,5210,8067,1910,Tag0,unknown
1.56778E+12,51,43,9.45E-06,47,84,44,944156,101133,218456,52364,135708,24210,16750517,25626,Tag0,unknown
1.56778E+12,51,-1710,-3.76E-04,47,84,44,414743,429011,196489,16768370,151034,45742,422590,177069,Tag0,unknown
1.56778E+12,51,1791,3.94E-04,47,84,44,1178373,43125,15070,78067,477400,149650,104560,43204,Tag0,unknown
timestampMs,poorSignal,eegRawValue,eegRawValueVolts,attention,meditation,blinkStrength,delta,theta,alphaLow,alphaHigh,betaLow,betaHigh,gammaLow,gammaMid,tagEvent,location
1.56778E+12,25,43,9.45E-06,0,0,46,0,0,0,0,0,0,0,0,Tag0,unknown
1.56778E+12,25,306,6.72E-05,0,0,46,57,5,1,1,1,2,2,0,Tag0,unknown
1.56778E+12,0,-289,-6.35E-05,0,0,89,325713,78329,4909,15341,6813,6411,9431,8620,Tag0,unknown
1.56778E+12,0,-275,-6.04E-05,0,0,42,3654131,99574,16759917,16756932,16100,17715,16766070,9562,Tag0,unknown
1.56778E+12,0,60,1.32E-05,0,0,42,170510,31036,7498,10543,20353,13040,15667,14861,Tag0,unknown
1.56778E+12,0,65,1.43E-05,53,30,42,16768865,16746516,5918,10734,17779,22965,11863,4442,Tag0,unknown
1.56778E+12,0,-93,-2.04E-05,63,23,42,25635,16745929,7046,10356,23199,17626,8759,3737,Tag0,unknown
1.56778E+12,0,56,1.23E-05,70,27,46,110385,16760075,7694,20970,14584,20894,4685,3842,Tag0,unknown
1.56778E+12,0,-340,-7.47E-05,80,23,46,1325602,90439,9430,25556,18866,16745556,26840,4382,Tag0,unknown
1.56778E+12,0,55,1.21E-05,67,27,39,1462747,233435,82972,22529,9793,16773489,16765382,8364,Tag0,unknown
1.56778E+12,0,41,9.01E-06,47,20,38,136388,16761489,5840,4531,5105,2814,4878,2995,Tag0,unknown
1.56778E+12,0,37,8.13E-06,23,38,55,235879,84425,87981,11072,8787,5696,10730,6533,Tag0,unknown
1.56778E+12,0,86,1.89E-05,13,44,39,505555,116617,66453,16231,26101,29004,29951,4668,Tag0,unknown
1.56778E+12,0,-265,-5.82E-05,16,67,39,288567,16746706,73581,5610,27247,29408,26591,7599,Tag0,unknown
1.56778E+12,0,-73,-1.60E-05,35,83,41,89466,17192,1907,5532,1784,6241,3385,2427,Tag0,unknown
1.56778E+12,0,-169,-3.71E-05,34,51,44,192850,107852,16747579,10931,13620,5930,13719,2324,Tag0,unknown
1.56778E+12,0,-216,-4.75E-05,37,67,44,1053539,28309,25446,18890,23154,9542,12677,5013,Tag0,unknown
1.56778E+12,0,100,2.20E-05,29,38,44,108614,32176,1232,10216,9096,5555,18254,4104,Tag0,unknown
1.56778E+12,0,60,1.32E-05,20,47,43,367838,53226,16765579,18911,19968,17732,25866,7473,Tag0,unknown
1.56778E+12,0,56,1.23E-05,40,66,43,139441,89125,16753716,16759288,16756352,26815,16752578,11884,Tag0,unknown
1.56778E+12,0,32,7.03E-06,57,29,43,87381,19063,1013,880,6372,15429,2714,2807,Tag0,unknown
1.56778E+12,0,113,2.48E-05,61,37,43,38668,11803,1563,1497,2785,2747,4161,4102,Tag0,unknown
1.56778E+12,0,-265,-5.82E-05,50,30,40,1335187,89084,2540,19011,9862,3667,7985,5286,Tag0,unknown
1.56778E+12,0,6,1.32E-06,41,35,40,669884,65934,15445,21744,6812,6648,5782,1087,Tag0,unknown
1.56778E+12,0,11,2.42E-06,24,77,40,157389,16750687,16767714,16755661,20563,22517,12442,16745226,Tag0,unknown
1.56778E+12,0,21,4.61E-06,35,84,40,175430,21806,10466,9501,6912,22887,17362,2878,Tag0,unknown
1.56778E+12,0,24,5.27E-06,61,96,40,67451,29538,22157,17510,12796,25014,8499,2933,Tag0,unknown
1.56778E+12,0,108,2.37E-05,74,90,42,2272053,164663,16760293,68912,16765671,65619,16745398,5834,Tag0,unknown
1.56778E+12,0,104,2.29E-05,75,83,42,287179,16764965,16756707,16750813,16748792,29458,12581,16746286,Tag0,unknown
1.56778E+12,0,37,8.13E-06,64,84,42,243588,28501,19954,4909,22019,10815,17458,18433,Tag0,unknown
1.56778E+12,0,-275,-6.04E-05,60,84,56,107521,16769453,16756390,13617,19589,29887,12687,4354,Tag0,unknown
1.56778E+12,0,0,0,54,80,56,221720,30351,3512,8241,10139,5490,3259,2098,Tag0,unknown
1.56778E+12,0,76,1.67E-05,57,78,56,6241,29951,27861,11667,12578,18424,7704,2251,Tag0,unknown
1.56778E+12,0,25,5.49E-06,77,81,56,4422,1627,8810,3348,4675,13956,10277,1541,Tag0,unknown
1.56778E+12,0,108,2.37E-05,80,70,56,350963,16747956,6983,12596,18371,22397,4585,6107,Tag0,unknown
1.56778E+12,0,113,2.48E-05,96,74,41,16227,17478,6891,8844,19032,18401,7576,5616,Tag0,unknown
1.56778E+12,0,86,1.89E-05,93,48,41,1105825,344435,19258,23778,26979,73777,45812,21421,Tag0,unknown
1.56778E+12,0,-273,-6.00E-05,66,44,45,329053,217919,16773262,16756752,15138,27374,14446,25956,Tag0,unknown
1.56778E+12,0,35,7.69E-06,60,29,45,617553,114559,5347,13106,22856,16750757,14794,9484,Tag0,unknown
1.56778E+12,0,44,9.67E-06,67,29,45,21870,3813,14578,9069,16746053,16750284,3918,4622,Tag0,unknown
1.56778E+12,0,16,3.52E-06,83,50,45,9984,2666,7592,17801,23420,27109,11523,2542,Tag0,unknown
1.56778E+12,0,42,9.23E-06,100,51,45,19013,4517,11035,7369,14165,23390,11595,7684,Tag0,unknown
1.56778E+12,0,-276,-6.06E-05,100,74,42,152377,77025,27380,19633,19461,21066,23832,3066,Tag0,unknown
1.56778E+12,0,-270,-5.93E-05,77,80,42,16776074,12743,7056,1865,1769,1685,1812,156,Tag0,unknown
1.56778E+12,0,-125,-2.75E-05,54,63,42,700201,60471,26139,6223,98012,20258,16753238,5348,Tag0,unknown
1.56778E+12,0,77,1.69E-05,44,61,53,482071,16769040,16745539,9830,22565,16745561,19098,8284,Tag0,unknown
1.56778E+12,0,-278,-6.11E-05,41,54,53,80122,28821,1554,6806,5360,4656,2608,1098,Tag0,unknown
1.56778E+12,0,40,8.79E-06,66,53,53,29573,6594,15541,5703,17409,24525,10326,7448,Tag0,unknown
1.56778E+12,0,-264,-5.80E-05,87,70,53,5836,3439,3090,19246,12582,23890,21603,7176,Tag0,unknown
1.56778E+12,0,82,1.80E-05,90,51,53,410844,70758,3045,8991,17915,16755466,8481,28621,Tag0,unknown
1.56778E+12,0,-264,-5.80E-05,100,57,53,17419,15775,3941,20524,12344,16748377,22088,7165,Tag0,unknown
1.56778E+12,0,19,4.17E-06,94,51,53,299906,148829,16754681,18467,16761454,16744665,16751967,14993,Tag0,unknown
1.56778E+12,0,81,1.78E-05,90,51,53,26808,17118,11475,25014,20669,16744611,16751169,22094,Tag0,unknown
1.56778E+12,0,22,4.83E-06,87,69,53,13301,23028,14649,14447,16747895,16323,16896,13341,Tag0,unknown
1.56778E+12,0,-193,-4.24E-05,74,69,53,16753013,23379,1821,12801,14503,9481,5625,822,Tag0,unknown
1.56778E+12,51,-2048,-4.50E-04,74,69,53,1927963,1903825,685445,94181,372213,469388,168439,36846,Tag0,unknown
1.56778E+12,51,851,1.87E-04,74,69,53,2788259,742946,47091,52653,16757652,79587,23760,11027,Tag0,unknown
1.56778E+12,51,-465,-1.02E-04,74,69,53,1604315,709567,79487,131788,155113,491207,481534,333776,Tag0,unknown
1.56778E+12,51,-2048,-4.50E-04,74,69,53,138676,81595,31325,32521,16750541,16752990,15937,4824,Tag0,unknown
timestampMs,poorSignal,eegRawValue,eegRawValueVolts,attention,meditation,blinkStrength,delta,theta,alphaLow,alphaHigh,betaLow,betaHigh,gammaLow,gammaMid,tagEvent,location
1.56778E+12,25,44,9.67E-06,0,0,0,2,1,1,1,0,1,1,1,Tag0,unknown
1.56778E+12,25,-105,-2.31E-05,0,0,0,61,4,1,0,0,1,0,1,Tag0,unknown
1.56778E+12,25,-147,-3.23E-05,0,0,59,778894,233229,484061,375789,37060,155335,133009,23956,Tag0,unknown
1.56778E+12,0,-537,-1.18E-04,0,0,79,167846,45346,22048,14729,22325,21004,10791,3720,Tag0,unknown
1.56778E+12,0,298,6.55E-05,0,0,44,680458,16756184,9078,13248,5457,25337,7114,2541,Tag0,unknown
1.56778E+12,0,-332,-7.29E-05,0,0,94,2953465,28753,22644,11122,7250,10055,2542,1103,Tag0,unknown
1.56778E+12,0,135,2.97E-05,30,37,58,169765,16916,3242,5026,9231,2044,1820,437,Tag0,unknown
1.56778E+12,0,-359,-7.89E-05,26,44,39,1235954,86331,66311,25118,16767722,17812,9103,2866,Tag0,unknown
1.56778E+12,0,-376,-8.26E-05,13,48,40,921213,190097,16773932,16775044,30892,25474,5979,5429,Tag0,unknown
1.56778E+12,0,67,1.47E-05,1,41,57,395791,39505,24921,13278,23516,8236,7902,1480,Tag0,unknown
1.56778E+12,0,-332,-7.29E-05,3,40,56,1597964,362718,147475,30898,16768144,16774517,21555,6880,Tag0,unknown
1.56778E+12,0,-327,-7.19E-05,1,27,63,2440697,97342,17803,25003,18998,14005,5374,1842,Tag0,unknown
1.56778E+12,0,-257,-5.65E-05,4,20,42,2123847,356880,51034,16745251,100860,16756193,13321,9074,Tag0,unknown
1.56778E+12,0,-274,-6.02E-05,1,13,46,417011,94831,12567,9972,10989,6348,6415,2417,Tag0,unknown
1.56778E+12,0,-321,-7.05E-05,4,17,46,16766359,4467,282,1664,456,646,404,363,Tag0,unknown
1.56778E+12,0,-318,-6.99E-05,1,3,39,537984,83902,5557,4003,6359,4386,8033,2251,Tag0,unknown
1.56778E+12,0,-275,-6.04E-05,4,3,42,462908,58964,14579,20751,29319,23784,5167,2114,Tag0,unknown
1.56778E+12,0,33,7.25E-06,11,8,39,623399,461414,78755,16750549,16746402,16762299,13788,5926,Tag0,unknown
1.56778E+12,0,6,1.32E-06,17,10,39,166764,16747883,13267,9885,13157,12524,1428,1138,Tag0,unknown
1.56778E+12,0,119,2.61E-05,29,37,39,114247,23891,15676,8571,16536,4813,4314,628,Tag0,unknown
1.56778E+12,0,24,5.27E-06,38,43,39,1419082,215217,70525,16767227,131598,88276,29821,14124,Tag0,unknown
1.56778E+12,0,-107,-2.35E-05,37,74,57,166302,13080,16745842,19354,4072,5814,3233,957,Tag0,unknown
1.56778E+12,0,36,7.91E-06,34,69,41,2126589,330957,34939,16746117,16746484,80392,16747323,13273,Tag0,unknown
1.56778E+12,0,-36,-7.91E-06,23,57,41,342849,120783,2493,16756568,16771291,31900,24607,5441,Tag0,unknown
1.56778E+12,0,87,1.91E-05,40,27,41,167337,24541,5490,8448,16730,8343,6047,1144,Tag0,unknown
1.56778E+12,0,19,4.17E-06,56,8,41,470461,16763246,14793,10639,16751881,26300,17689,4626,Tag0,unknown
1.56778E+12,0,112,2.46E-05,51,14,39,381645,49927,69656,22854,16751703,24283,5857,5976,Tag0,unknown
1.56778E+12,0,42,9.23E-06,54,27,39,646178,16775518,16751825,15230,16754820,22060,19022,4317,Tag0,unknown
1.56778E+12,0,-262,-5.76E-05,56,37,39,105896,74993,28833,16752217,17886,16744621,17654,8882,Tag0,unknown
1.56778E+12,0,-281,-6.17E-05,34,35,42,674651,274659,16744704,27264,16764350,23387,16745599,4744,Tag0,unknown
1.56778E+12,0,6,1.32E-06,26,38,40,1553200,16751524,9880,24481,5717,6009,4272,1550,Tag0,unknown
1.56778E+12,0,75,1.65E-05,16,38,40,1529455,37870,14870,16769312,16757038,14748,20139,3495,Tag0,unknown
1.56778E+12,0,82,1.80E-05,1,40,39,602166,200062,48902,16754959,24514,15688,12684,13484,Tag0,unknown
1.56778E+12,0,-334,-7.34E-05,1,41,73,449051,16766306,3935,9825,10970,5207,2361,2072,Tag0,unknown
1.56778E+12,0,64,1.41E-05,11,30,73,163421,30466,7396,13745,15563,14149,9312,5488,Tag0,unknown
1.56778E+12,0,82,1.80E-05,16,26,43,37450,14059,676,5728,7949,2293,2788,1125,Tag0,unknown
1.56778E+12,0,22,4.83E-06,30,8,43,165797,146157,18489,21457,16758779,26047,10944,7829,Tag0,unknown
1.56778E+12,0,73,1.60E-05,60,20,43,67136,12179,9627,10455,16405,17847,3350,9147,Tag0,unknown
1.56778E+12,0,33,7.25E-06,34,4,44,382709,37971,2785,5458,7896,4656,985,1417,Tag0,unknown
1.56778E+12,0,-290,-6.37E-05,17,13,34,39592,16750434,12850,7218,4681,2361,1434,484,Tag0,unknown
1.56778E+12,0,59,1.30E-05,17,23,34,16765001,16771480,5256,24759,25117,10654,8880,13210,Tag0,unknown
1.56778E+12,0,68,1.49E-05,1,40,47,16765166,6147,18042,6735,5267,3833,1972,905,Tag0,unknown
1.56778E+12,0,84,1.85E-05,24,63,47,18855,25806,2920,31829,27379,14341,9126,4043,Tag0,unknown
1.56778E+12,0,-273,-6.00E-05,51,80,47,80503,18320,9962,16776449,8172,20467,4306,3848,Tag0,unknown
1.56778E+12,0,-311,-6.83E-05,54,77,47,146920,30918,3332,6482,3769,6347,5471,1799,Tag0,unknown
1.56778E+12,0,21,4.61E-06,63,48,47,20217,12403,231,2092,987,3097,2192,446,Tag0,unknown
1.56778E+12,0,-149,-3.27E-05,56,48,39,315873,34723,16775763,12211,20207,27826,13543,9078,Tag0,unknown
1.56778E+12,0,8,1.76E-06,54,38,55,16748918,30224,16750338,12731,22947,15639,32164,3438,Tag0,unknown
1.56778E+12,0,-264,-5.80E-05,53,41,55,391306,36607,27634,20276,30403,21958,16124,5862,Tag0,unknown
1.56778E+12,0,57,1.25E-05,54,44,44,175226,14071,1114,4052,5997,3999,4557,1560,Tag0,unknown
1.56778E+12,0,-349,-7.67E-05,64,38,44,16747933,16746763,10865,10225,22739,16655,15875,5855,Tag0,unknown
1.56778E+12,0,-126,-2.77E-05,63,43,44,67008,30216,16749401,21970,10733,15672,17528,5485,Tag0,unknown
1.56778E+12,0,72,1.58E-05,70,56,34,53461,919,2586,1559,2252,1339,694,234,Tag0,unknown
1.56778E+12,0,57,1.25E-05,64,74,46,1015904,134200,16755928,46627,9265,16748677,17521,7138,Tag0,unknown
1.56778E+12,0,88,1.93E-05,57,81,42,45651,16745332,17918,32437,16754150,19465,11377,4349,Tag0,unknown
1.56778E+12,0,-56,-1.23E-05,74,81,39,14770,2783,2127,12411,2686,8033,4057,4786,Tag0,unknown
1.56778E+12,0,-263,-5.78E-05,60,69,46,180469,72361,3455,16748982,24288,12060,27216,11878,Tag0,unknown
1.56778E+12,0,41,9.01E-06,57,61,46,1053244,144726,16751292,26987,12977,22898,15678,14279,Tag0,unknown
1.56778E+12,0,1791,3.94E-04,43,60,46,198314,196328,146026,16749087,75076,16748485,16751213,14492,Tag0,unknown
timestampMs,poorSignal,eegRawValue,eegRawValueVolts,attention,meditation,blinkStrength,delta,theta,alphaLow,alphaHigh,betaLow,betaHigh,gammaLow,gammaMid,tagEvent,location
1.56778E+12,0,43,9.45E-06,83,64,68,148223,56010,7066,26042,16758054,16773981,11091,20550,Tag0,unknown
1.56778E+12,25,42,9.23E-06,0,0,68,7,1,0,0,1,0,1,0,Tag0,unknown
1.56778E+12,25,-278,-6.11E-05,0,0,55,16777126,22,2,9,11,5,2,1,Tag0,unknown
1.56778E+12,0,-210,-4.61E-05,0,0,41,420377,828313,87132,68141,32572,16751221,16751874,22008,Tag0,unknown
1.56778E+12,0,11,2.42E-06,0,0,41,403260,18745,9123,5891,3310,4408,1817,1848,Tag0,unknown
1.56778E+12,0,53,1.16E-05,53,53,41,117490,16755988,32130,15180,11225,19458,12277,6912,Tag0,unknown
1.56778E+12,0,51,1.12E-05,56,44,40,199615,25589,1885,2977,1486,2790,1609,2631,Tag0,unknown
1.56778E+12,0,74,1.63E-05,80,63,40,9950,7263,7526,18960,8983,20034,11563,2458,Tag0,unknown
1.56778E+12,0,-210,-4.61E-05,77,51,40,553292,45999,12781,4535,8442,7353,5430,2168,Tag0,unknown
1.56778E+12,0,-78,-1.71E-05,61,23,40,505146,81782,6114,3606,2007,5453,5507,3289,Tag0,unknown
1.56778E+12,0,58,1.27E-05,61,35,41,439384,16744614,5938,7249,1199,4741,5157,3168,Tag0,unknown
1.56778E+12,0,112,2.46E-05,20,1,41,831708,1002720,16755458,16774714,16744624,11670,17433,6146,Tag0,unknown
1.56778E+12,0,-373,-8.20E-05,20,34,41,400961,121759,144235,16768799,16750946,18027,11847,12511,Tag0,unknown
1.56778E+12,0,65,1.43E-05,30,43,36,62029,13010,1930,1522,3342,2403,1554,1661,Tag0,unknown
1.56778E+12,0,42,9.23E-06,51,24,37,29377,32431,3351,3374,8145,22413,6622,7160,Tag0,unknown
1.56778E+12,0,-221,-4.86E-05,83,43,37,555016,35564,16745096,17984,16745964,30640,16746900,12936,Tag0,unknown
1.56778E+12,0,-301,-6.61E-05,97,35,37,692392,19500,12113,4936,5044,7512,6606,1927,Tag0,unknown
1.56778E+12,0,85,1.87E-05,100,26,37,311649,37370,8482,11137,18361,16744814,19253,4705,Tag0,unknown
1.56778E+12,0,45,9.89E-06,100,38,37,9878,21909,2141,10268,21890,15248,14781,7911,Tag0,unknown
1.56778E+12,0,-124,-2.72E-05,100,37,40,366741,16750027,10401,3526,7414,7314,6044,9155,Tag0,unknown
1.56778E+12,0,66,1.45E-05,94,47,47,55105,13315,25173,17454,2861,7307,2966,2021,Tag0,unknown
1.56778E+12,0,356,7.82E-05,94,61,47,397003,16752129,17682,14584,26606,19240,19576,5678,Tag0,unknown
1.56778E+12,0,-186,-4.09E-05,87,69,40,12504,17446,8213,3177,4534,6427,3516,2853,Tag0,unknown
1.56778E+12,0,81,1.78E-05,87,61,45,214708,52126,25590,9871,29154,22366,12481,9246,Tag0,unknown
1.56778E+12,0,5,1.10E-06,91,41,57,70766,16768983,24550,15009,13746,23930,5866,5114,Tag0,unknown
1.56778E+12,0,48,1.05E-05,78,34,46,325719,229517,16747649,16747057,24685,27881,17897,3619,Tag0,unknown
1.56778E+12,0,-90,-1.98E-05,70,23,46,823677,253970,24841,16760948,27960,16759432,18998,7085,Tag0,unknown
1.56778E+12,0,-262,-5.76E-05,74,14,46,547817,16765295,1226,8504,9395,11013,10179,5842,Tag0,unknown
1.56778E+12,0,-296,-6.50E-05,54,1,43,112314,16772099,3166,4623,2099,2960,1950,2105,Tag0,unknown
1.56778E+12,0,82,1.80E-05,70,4,43,481984,79078,16757141,30760,72698,16767467,22932,16744470,Tag0,unknown
1.56778E+12,0,-71,-1.56E-05,83,1,44,999170,46765,5268,13655,27697,16758869,16758730,11297,Tag0,unknown
1.56778E+12,0,-115,-2.53E-05,83,10,60,378283,16771216,14171,8725,7862,13624,8064,2691,Tag0,unknown
1.56778E+12,0,-328,-7.21E-05,87,26,72,47296,137869,16761596,11239,17291,12844,14663,5038,Tag0,unknown
1.56778E+12,0,57,1.25E-05,78,27,72,380728,12423,7292,720,2723,3638,2433,1228,Tag0,unknown
1.56778E+12,0,-281,-6.17E-05,80,40,36,196000,4446,586,1031,498,1673,1237,2090,Tag0,unknown
1.56778E+12,0,-293,-6.44E-05,78,47,47,293809,78794,16753319,16402,22076,20205,19367,6570,Tag0,unknown
1.56778E+12,0,-278,-6.11E-05,70,54,59,785689,350729,169410,26839,28183,22365,30325,5363,Tag0,unknown
1.56778E+12,0,34,7.47E-06,83,60,59,16762350,8358,21338,8316,18522,19199,20461,8692,Tag0,unknown
1.56778E+12,0,28,6.15E-06,64,67,47,228165,16755581,18201,6093,7451,4472,2510,2926,Tag0,unknown
1.56778E+12,0,-281,-6.17E-05,77,74,45,16774538,3587,4503,3043,3150,5379,8387,1328,Tag0,unknown
1.56778E+12,0,-776,-1.71E-04,91,69,51,128828,149854,16767927,16757632,7878,30875,16748063,9205,Tag0,unknown
1.56778E+12,0,-308,-6.77E-05,63,61,47,443513,58985,16755962,12536,20856,6527,5915,2285,Tag0,unknown
1.56778E+12,0,28,6.15E-06,74,64,47,525440,16776279,22638,32193,13828,19878,11129,3851,Tag0,unknown
1.56778E+12,0,24,5.27E-06,75,63,47,89261,2491,4698,2774,5315,5519,5005,1511,Tag0,unknown
1.56778E+12,0,40,8.79E-06,70,57,47,63360,46616,24062,16750805,16748262,15031,12343,3729,Tag0,unknown
1.56778E+12,0,125,2.75E-05,96,44,41,16753404,16749325,2532,5033,5825,15895,8785,2690,Tag0,unknown
1.56778E+12,0,-264,-5.80E-05,91,38,45,775478,224964,67837,23519,21183,31837,12387,3192,Tag0,unknown
1.56778E+12,0,75,1.65E-05,69,23,41,629231,87692,6167,15350,8357,7504,30225,5804,Tag0,unknown
1.56778E+12,0,26,5.71E-06,64,20,43,288973,16767682,14899,3770,3686,4668,5480,1196,Tag0,unknown
1.56778E+12,0,27,5.93E-06,51,48,43,75205,11848,7632,8398,2184,2199,5089,1359,Tag0,unknown
1.56778E+12,0,91,2.00E-05,54,48,38,90675,17384,6310,2166,5198,3780,2230,2840,Tag0,unknown
1.56778E+12,0,80,1.76E-05,75,56,38,36563,30611,4314,28618,28090,26539,11697,3839,Tag0,unknown
1.56778E+12,0,87,1.91E-05,97,56,38,3322,14544,8782,4373,8094,24868,17834,7436,Tag0,unknown
1.56778E+12,0,40,8.79E-06,100,21,57,2531,30440,925,1234,8999,26344,20624,8261,Tag0,unknown
1.56778E+12,0,1,2.20E-07,100,24,57,136177,16748054,7088,8817,13489,13401,4847,10270,Tag0,unknown
1.56778E+12,0,-258,-5.67E-05,100,16,40,12248,16746461,7781,4665,13407,16755419,9630,2191,Tag0,unknown
1.56778E+12,0,60,1.32E-05,100,11,41,269309,25023,2207,1088,2187,4825,3923,1173,Tag0,unknown
1.56778E+12,0,27,5.93E-06,84,34,41,172658,16754605,6827,6773,3645,5094,4210,177,Tag0,unknown
timestampMs,poorSignal,eegRawValue,eegRawValueVolts,attention,meditation,blinkStrength,delta,theta,alphaLow,alphaHigh,betaLow,betaHigh,gammaLow,gammaMid,tagEvent,location
1.56778E+12,25,43,9.45E-06,0,0,43,14,1,0,0,0,1,0,0,Tag0,unknown
1.56778E+12,25,49,1.08E-05,0,0,43,14,1,0,0,0,1,0,0,Tag0,unknown
1.56778E+12,0,66,1.45E-05,0,0,43,270531,109062,112374,43397,16763753,16760234,27527,20064,Tag0,unknown
1.56778E+12,0,49,1.08E-05,0,0,43,48110,27757,319,1881,1513,3905,2821,1577,Tag0,unknown
1.56778E+12,0,57,1.25E-05,0,0,45,89192,30589,1602,5732,12757,4689,4177,730,Tag0,unknown
1.56778E+12,0,24,5.27E-06,51,48,45,156898,16761280,18504,27127,18586,12781,12804,3994,Tag0,unknown
1.56778E+12,0,42,9.23E-06,34,53,45,135520,40415,16750843,15723,21570,7960,11559,7187,Tag0,unknown
1.56778E+12,0,-327,-7.19E-05,56,67,45,16755013,2612,5711,4682,3531,2588,2486,1506,Tag0,unknown
1.56778E+12,0,-274,-6.02E-05,54,66,38,428542,87038,9831,6672,6659,8963,2717,1707,Tag0,unknown
1.56778E+12,0,-72,-1.58E-05,23,64,46,1085731,399556,58959,16776301,16123,23761,16761695,21677,Tag0,unknown
1.56778E+12,0,-599,-1.32E-04,29,64,46,772985,165793,16767779,16745726,9080,15415,7428,4662,Tag0,unknown
1.56778E+12,0,0,0,26,64,46,587763,15007,29916,5446,3649,8066,10023,2590,Tag0,unknown
1.56778E+12,0,-124,-2.72E-05,51,74,46,260592,15423,2179,14015,7810,5775,1749,1749,Tag0,unknown
1.56778E+12,0,-71,-1.56E-05,61,61,44,360692,283897,12422,14611,31852,20142,17812,7201,Tag0,unknown
1.56778E+12,0,119,2.61E-05,78,60,44,446803,16756165,5663,11252,4570,6444,2468,3093,Tag0,unknown
1.56778E+12,0,-341,-7.49E-05,81,54,44,16758516,19625,10775,13612,4661,19406,5834,5689,Tag0,unknown
1.56778E+12,0,-146,-3.21E-05,51,35,40,1293768,1248595,29479,26930,16776786,93933,31183,21411,Tag0,unknown
1.56778E+12,0,-317,-6.97E-05,43,47,40,1211289,50289,16751776,31662,27544,8072,12399,7440,Tag0,unknown
1.56778E+12,0,40,8.79E-06,35,41,40,642523,199777,22244,16904,9302,24335,16757133,6527,Tag0,unknown
1.56778E+12,0,-294,-6.46E-05,4,44,40,93908,16768812,16754503,16953,8376,8638,25717,8390,Tag0,unknown
1.56778E+12,0,60,1.32E-05,1,51,56,159683,88228,5107,4088,5020,4117,4463,2259,Tag0,unknown
1.56778E+12,0,71,1.56E-05,35,48,56,30507,16746598,8163,10490,13732,27177,6232,4778,Tag0,unknown
1.56778E+12,0,-290,-6.37E-05,60,57,56,6548,15140,5514,23797,10246,15930,11836,2434,Tag0,unknown
1.56778E+12,0,-297,-6.53E-05,77,47,39,109950,18140,2748,1182,6571,4504,8706,3145,Tag0,unknown
1.56778E+12,0,83,1.82E-05,100,50,39,89958,15998,2523,1796,2283,4471,5034,2043,Tag0,unknown
1.56778E+12,0,-43,-9.45E-06,66,54,39,50999,23971,8806,5782,6378,2206,6009,2335,Tag0,unknown
1.56778E+12,0,-291,-6.39E-05,57,50,39,627325,16749619,11353,16571,25950,15522,18034,9801,Tag0,unknown
1.56778E+12,0,66,1.45E-05,51,53,47,187115,16758020,5319,14571,20683,9786,3177,3060,Tag0,unknown
1.56778E+12,0,60,1.32E-05,40,48,47,75798,16750463,1597,3168,8953,4142,3798,414,Tag0,unknown
1.56778E+12,0,-265,-5.82E-05,56,50,47,338645,74380,21586,16751041,5992,22708,4546,6508,Tag0,unknown
1.56778E+12,0,33,7.25E-06,48,53,47,16747493,16748597,23827,21330,16748830,13158,27523,3806,Tag0,unknown
1.56778E+12,0,38,8.35E-06,67,54,56,33723,16747921,11017,9841,8009,26266,16532,6459,Tag0,unknown
1.56778E+12,0,-139,-3.05E-05,77,67,45,220741,95708,16772283,22331,9450,29062,10940,9627,Tag0,unknown
1.56778E+12,0,18,3.96E-06,70,67,45,1846362,16753685,17651,12919,5625,8728,3291,3522,Tag0,unknown
1.56778E+12,0,4,8.79E-07,91,61,45,246054,12788,3951,1749,4216,11585,2503,1438,Tag0,unknown
1.56778E+12,0,70,1.54E-05,81,54,45,67493,22059,1873,3371,6053,6825,4130,671,Tag0,unknown
1.56778E+12,0,85,1.87E-05,84,53,57,9276,28246,8328,11096,5618,11224,13112,1835,Tag0,unknown
1.56778E+12,0,-556,-1.22E-04,70,53,38,16761629,29862,16004,5090,3446,2753,4138,2301,Tag0,unknown
1.56778E+12,0,53,1.16E-05,30,51,38,345287,345963,31419,22428,26851,17085,22243,3355,Tag0,unknown
1.56778E+12,0,117,2.57E-05,7,50,45,203561,77621,3862,9129,14792,5450,5309,2301,Tag0,unknown
1.56778E+12,0,85,1.87E-05,1,50,45,301389,155863,16746912,16759611,16751086,12706,18440,11141,Tag0,unknown
1.56778E+12,0,37,8.13E-06,7,43,38,16752269,12559,634,3801,4396,4331,3216,1478,Tag0,unknown
1.56778E+12,0,52,1.14E-05,26,56,38,57987,6844,10836,3443,6328,3240,992,930,Tag0,unknown
1.56778E+12,0,51,1.12E-05,51,57,38,12141,16774962,10375,7354,7848,21651,10166,13531,Tag0,unknown
1.56778E+12,0,83,1.82E-05,80,57,44,90558,8280,3491,3705,3669,4499,3348,1901,Tag0,unknown
1.56778E+12,0,93,2.04E-05,54,77,44,16754160,15272,26575,18384,963,3289,2162,1545,Tag0,unknown
1.56778E+12,0,50,1.10E-05,61,74,44,29874,9725,1728,7044,980,4439,2559,654,Tag0,unknown
1.56778E+12,0,8,1.76E-06,57,77,46,16769224,17778,4170,3220,3124,5897,3425,746,Tag0,unknown
1.56778E+12,0,-311,-6.83E-05,61,77,50,16754457,20130,4796,12734,4048,14214,8751,7866,Tag0,unknown
1.56778E+12,0,29,6.37E-06,91,63,50,16752301,8969,9270,2596,10724,7138,5310,995,Tag0,unknown
1.56778E+12,0,64,1.41E-05,90,51,50,154091,72988,6909,4153,9074,17866,13376,12895,Tag0,unknown
1.56778E+12,0,266,5.84E-05,91,60,50,100840,16755701,13265,16758405,10946,26228,24015,2800,Tag0,unknown
1.56778E+12,0,51,1.12E-05,97,51,41,30140,16755382,7101,6601,5430,30818,12001,9293,Tag0,unknown
1.56778E+12,0,16,3.52E-06,97,54,46,7234,9855,8190,15480,13816,12415,13128,7445,Tag0,unknown
1.56778E+12,0,87,1.91E-05,88,61,46,401528,29689,1610,6986,4006,4204,1727,1946,Tag0,unknown
1.56778E+12,0,42,9.23E-06,90,54,46,16749278,9960,6168,1908,11071,4858,2885,378,Tag0,unknown
1.56778E+12,0,100,2.20E-05,90,53,46,16753361,20498,3507,5183,5659,29589,11508,2651,Tag0,unknown
1.56778E+12,0,-259,-5.69E-05,80,53,40,30619,3974,4204,3707,7391,3067,1798,1317,Tag0,unknown
1.56778E+12,0,40,8.79E-06,77,53,49,59373,23487,4711,2660,2752,3371,4663,2583,Tag0,unknown
timestampMs,poorSignal,eegRawValue,eegRawValueVolts,attention,meditation,blinkStrength,delta,theta,alphaLow,alphaHigh,betaLow,betaHigh,gammaLow,gammaMid,tagEvent,location
1.56778E+12,25,43,9.45E-06,0,0,43,1,0,0,0,0,1,0,1,Tag0,unknown
1.56778E+12,25,74,1.63E-05,0,0,43,56,2,1,1,1,1,3,1,Tag0,unknown
1.56778E+12,25,135,2.97E-05,0,0,42,1498027,47014,21731,17065,6115,10509,8964,8904,Tag0,unknown
1.56778E+12,25,-501,-1.10E-04,0,0,104,1498027,47014,21731,17065,6115,10509,8964,8904,Tag0,unknown
1.56778E+12,26,-2076,-4.56E-04,0,0,104,1354787,47020,7307,13920,6979,11848,4074,1729,Tag0,unknown
1.56778E+12,0,380,8.35E-05,0,0,127,499880,16769605,39318,67136,16772918,16757577,27567,10349,Tag0,unknown
1.56778E+12,0,38,8.35E-06,0,0,43,44059,15295,5977,16777208,1464,1026,892,550,Tag0,unknown
1.56778E+12,0,120,2.64E-05,44,37,43,113285,26640,6263,5703,6664,3993,2338,2938,Tag0,unknown
1.56778E+12,0,-268,-5.89E-05,67,47,40,25840,21472,24376,18961,10407,22581,6168,16519,Tag0,unknown
1.56778E+12,0,-108,-2.37E-05,91,50,40,6902,24384,6157,15361,10417,17617,10591,6791,Tag0,unknown
1.56778E+12,0,23,5.05E-06,100,56,40,600267,17339,29477,3371,15061,25199,13037,7388,Tag0,unknown
1.56778E+12,0,-298,-6.55E-05,100,60,40,88379,16758133,17990,13046,9858,25674,10136,11361,Tag0,unknown
1.56778E+12,0,-124,-2.72E-05,100,53,40,12234,8493,11507,6959,11572,22971,6856,5317,Tag0,unknown
1.56778E+12,0,288,6.33E-05,100,57,40,16776135,13512,8774,4866,2620,7012,3257,1245,Tag0,unknown
1.56778E+12,0,-77,-1.69E-05,96,50,40,43329,16757070,7950,31287,16766129,18732,17536,4712,Tag0,unknown
1.56778E+12,0,32,7.03E-06,88,41,40,425405,16771517,9368,13334,29072,21558,16039,6945,Tag0,unknown
1.56778E+12,0,9,1.98E-06,74,30,40,365890,73121,10798,11519,11794,22613,10280,3538,Tag0,unknown
1.56778E+12,0,123,2.70E-05,64,24,40,441779,93468,18769,27178,10362,18098,6473,9576,Tag0,unknown
1.56778E+12,0,45,9.89E-06,56,14,40,16769582,180439,25531,22217,17370,16745369,30201,5376,Tag0,unknown
1.56778E+12,0,103,2.26E-05,54,26,40,71338,12027,8947,1175,3438,4887,2029,1451,Tag0,unknown
1.56778E+12,0,38,8.35E-06,60,40,40,6943,25897,11081,25486,12186,22634,10777,8653,Tag0,unknown
1.56778E+12,0,73,1.60E-05,44,40,40,721974,230187,16759072,70988,21770,15768,12662,10180,Tag0,unknown
1.56778E+12,0,84,1.85E-05,50,63,40,22447,25001,25562,20869,15947,12755,17528,5872,Tag0,unknown
1.56778E+12,0,58,1.27E-05,37,70,44,97209,15586,16763,1670,2097,2674,3980,1443,Tag0,unknown
1.56778E+12,0,32,7.03E-06,34,75,43,99199,5048,4462,6144,2884,4005,6348,1155,Tag0,unknown
1.56778E+12,0,65,1.43E-05,44,75,43,52287,19010,4592,3050,2427,2734,2990,658,Tag0,unknown
1.56778E+12,0,-343,-7.54E-05,48,66,37,19980,23332,16215,5524,11035,10915,9994,8314,Tag0,unknown
1.56778E+12,0,87,1.91E-05,67,51,37,68580,7196,2204,2865,5481,3999,3794,1873,Tag0,unknown
1.56778E+12,0,-56,-1.23E-05,78,43,42,11474,23570,15512,12699,9633,30505,13953,3058,Tag0,unknown
1.56778E+12,0,83,1.82E-05,87,47,42,857981,16765623,26320,15446,19755,16968,9167,2797,Tag0,unknown
1.56778E+12,0,-277,-6.09E-05,93,43,42,16752672,16756210,6074,23191,7337,31758,22167,12526,Tag0,unknown
1.56778E+12,0,-283,-6.22E-05,78,44,55,499944,16776965,18579,6180,2093,9122,3072,1454,Tag0,unknown
1.56778E+12,0,24,5.27E-06,66,37,56,16746697,16752674,4421,11567,9377,13584,15393,4859,Tag0,unknown
1.56778E+12,0,-276,-6.06E-05,69,40,56,179109,16748136,9586,27383,9766,17197,13095,7090,Tag0,unknown
1.56778E+12,0,-257,-5.65E-05,66,27,60,36391,74514,7781,10803,19913,30073,18488,5193,Tag0,unknown
1.56778E+12,0,96,2.11E-05,50,37,60,1473152,371881,144220,143185,16760726,20706,15971,5048,Tag0,unknown
1.56778E+12,0,2,4.39E-07,48,30,47,44689,16751701,8323,3763,19573,10684,12191,5988,Tag0,unknown
1.56778E+12,0,21,4.61E-06,51,35,40,61261,22976,13273,19800,7800,17577,26302,5241,Tag0,unknown
1.56778E+12,0,109,2.40E-05,43,50,46,333184,13697,3276,4742,1895,3261,3858,884,Tag0,unknown
1.56778E+12,0,-185,-4.06E-05,75,51,47,31252,16750174,13297,27613,6077,28304,17701,10722,Tag0,unknown
1.56778E+12,0,24,5.27E-06,56,61,47,190333,16775811,7842,23039,15270,4035,4875,2427,Tag0,unknown
1.56778E+12,0,-332,-7.29E-05,61,44,39,66424,11391,4924,620,3278,8495,2381,2531,Tag0,unknown
1.56778E+12,0,38,8.35E-06,56,44,39,1488505,56446,102925,16747032,273219,16747317,19119,14944,Tag0,unknown
1.56778E+12,0,-156,-3.43E-05,47,43,39,1490633,84066,16769190,16146,23042,24609,30929,2982,Tag0,unknown
1.56778E+12,0,9,1.98E-06,47,27,38,165807,266121,13448,22373,18974,14032,15137,4770,Tag0,unknown
1.56778E+12,0,81,1.78E-05,35,17,38,57841,36818,12996,2817,16347,24793,10699,25561,Tag0,unknown
1.56778E+12,0,3,6.59E-07,47,11,38,636573,91154,5395,32152,7488,16745453,20308,4266,Tag0,unknown
1.56778E+12,0,-264,-5.80E-05,63,1,57,5220,19409,6507,7679,16699,24018,5427,11800,Tag0,unknown
1.56778E+12,0,32,7.03E-06,81,27,57,81037,4800,349,8290,2751,2538,4143,1416,Tag0,unknown
1.56778E+12,0,11,2.42E-06,93,40,57,1379,9749,1673,9239,13039,11126,12316,6553,Tag0,unknown
1.56778E+12,0,10,2.20E-06,91,56,44,2104,19890,9134,16748034,12689,18041,9160,7892,Tag0,unknown
1.56778E+12,0,68,1.49E-05,67,67,44,16761253,18237,4993,14592,9243,3920,3954,976,Tag0,unknown
1.56778E+12,0,75,1.65E-05,75,60,44,6801,24913,10648,7667,8867,12579,17858,4794,Tag0,unknown
1.56778E+12,0,28,6.15E-06,63,57,44,114389,88170,15551,16810,16074,25369,16542,10546,Tag0,unknown
1.56778E+12,0,7,1.54E-06,61,56,42,16763538,10942,9824,4488,3556,5426,3024,1788,Tag0,unknown
1.56778E+12,0,-270,-5.93E-05,64,51,42,232028,23288,15993,3526,14897,5548,2990,1362,Tag0,unknown
1.56778E+12,0,53,1.16E-05,77,56,42,12982,9344,7784,17780,5854,29023,9932,3326,Tag0,unknown
1.56778E+12,0,356,7.82E-05,80,69,38,8585,12034,11370,16417,16262,10159,19033,4378,Tag0,unknown
1.56778E+12,0,25,5.49E-06,61,67,47,496759,161663,16760704,84970,16747996,14661,14435,8206,Tag0,unknown
timestampMs,poorSignal,eegRawValue,eegRawValueVolts,attention,meditation,blinkStrength,delta,theta,alphaLow,alphaHigh,betaLow,betaHigh,gammaLow,gammaMid,tagEvent,location
1.56778E+12,25,43,9.45E-06,0,0,43,12,2,0,0,0,0,1,1,Tag0,unknown
1.56778E+12,25,-25,-5.49E-06,0,0,43,63,5,8,5,1,3,2,1,Tag0,unknown
1.56778E+12,25,34,7.47E-06,0,0,56,63,5,8,5,1,3,2,1,Tag0,unknown
1.56778E+12,0,25,5.49E-06,0,0,41,439357,16751159,8272,16724,17679,11690,9545,5833,Tag0,unknown
1.56778E+12,0,-279,-6.13E-05,0,0,41,16754489,18088,9412,8904,4390,4853,4743,1388,Tag0,unknown
1.56778E+12,0,-258,-5.67E-05,30,30,36,1154922,298534,7052,16747007,21606,9692,17713,12578,Tag0,unknown
1.56778E+12,0,12,2.64E-06,44,41,36,329773,10450,5346,3178,1946,3034,4039,3817,Tag0,unknown
1.56778E+12,0,20,4.39E-06,67,35,36,9699,10083,705,3366,12727,10732,11325,2940,Tag0,unknown
1.56778E+12,0,-94,-2.07E-05,69,38,36,16774262,26979,1400,8802,3640,3086,2423,1178,Tag0,unknown
1.56778E+12,0,108,2.37E-05,90,56,36,16765521,13351,8716,4148,1864,5175,1942,486,Tag0,unknown
1.56778E+12,0,73,1.60E-05,80,44,40,42934,25111,1676,3983,3665,2736,2038,2075,Tag0,unknown
1.56778E+12,0,16,3.52E-06,66,53,40,16752111,16752645,10002,7199,13250,11088,16007,11024,Tag0,unknown
1.56778E+12,0,34,7.47E-06,84,48,39,159454,11897,3307,304,2093,7988,3933,3225,Tag0,unknown
1.56778E+12,0,41,9.01E-06,91,44,41,185838,22486,7938,13289,6843,17339,7207,3976,Tag0,unknown
1.56778E+12,0,54,1.19E-05,100,47,41,77708,16405,4134,1250,4299,4053,2637,846,Tag0,unknown
1.56778E+12,0,69,1.52E-05,100,51,41,3411,13494,3591,15616,6356,16748584,17137,3802,Tag0,unknown
1.56778E+12,0,42,9.23E-06,100,63,41,6544,18627,10968,14680,12197,16432,17627,3296,Tag0,unknown
1.56778E+12,0,96,2.11E-05,100,63,41,150824,2880,3728,1949,3921,6337,4199,1829,Tag0,unknown
1.56778E+12,0,52,1.14E-05,100,70,41,3445,13360,15267,5007,12211,18644,11625,6292,Tag0,unknown
1.56778E+12,0,68,1.49E-05,100,56,41,6068,8791,1378,2021,12259,16546,18105,4807,Tag0,unknown
1.56778E+12,0,-293,-6.44E-05,100,44,39,2926,8330,7256,2229,6759,16750272,24669,5081,Tag0,unknown
1.56778E+12,0,24,5.27E-06,100,40,42,98592,140147,16761220,14780,24846,16747469,11453,10871,Tag0,unknown
1.56778E+12,0,43,9.45E-06,93,47,44,6010,25286,30689,13460,15623,10918,13343,3455,Tag0,unknown
1.56778E+12,0,34,7.47E-06,74,60,44,192371,31142,8374,5707,5333,7080,1751,5175,Tag0,unknown
1.56778E+12,0,72,1.58E-05,69,66,44,10303,10099,10022,2427,4522,26601,14464,4854,Tag0,unknown
1.56778E+12,0,36,7.91E-06,80,57,44,18453,18544,1143,8222,20600,18477,6533,10394,Tag0,unknown
1.56778E+12,0,83,1.82E-05,78,38,44,83013,28917,2428,1451,3154,3726,1505,4574,Tag0,unknown
1.56778E+12,0,-285,-6.26E-05,67,27,43,1084776,249044,20012,30087,17478,17128,20281,8318,Tag0,unknown
1.56778E+12,0,-327,-7.19E-05,43,27,42,853189,88900,13763,14051,2666,5257,2710,3268,Tag0,unknown
1.56778E+12,0,36,7.91E-06,26,34,42,184285,16750558,6715,3641,2537,3719,1507,514,Tag0,unknown
1.56778E+12,0,-370,-8.13E-05,27,40,42,1075704,293798,10350,71989,16747944,16767461,18951,9787,Tag0,unknown
1.56778E+12,0,-279,-6.13E-05,43,51,41,16749393,13807,8523,7773,9869,9181,2027,1210,Tag0,unknown
1.56778E+12,25,-72,-1.58E-05,43,51,53,16768495,16749264,12683,2197,10335,6096,2227,821,Tag0,unknown
1.56778E+12,26,27,5.93E-06,43,51,42,1312464,399129,201417,42741,16756143,21896,5668,7607,Tag0,unknown
1.56778E+12,0,-116,-2.55E-05,47,61,41,398602,11355,6469,5292,3353,1654,1543,526,Tag0,unknown
