timestampMs,poorSignal,eegRawValue,eegRawValueVolts,attention,meditation,blinkStrength,delta,theta,alphaLow,alphaHigh,betaLow,betaHigh,gammaLow,gammaMid,tagEvent,location
1.57E+12,0,33,7.25E-06,56,43,55,6628,16950,729,9469,10596,10165,22831,4987,Tag0,unknown
1.57E+12,0,29,6.37E-06,40,43,56,166520,138300,16751122,28382,16745106,13189,16744882,12116,Tag0,unknown
1.57E+12,0,37,8.13E-06,40,51,42,318496,30859,13430,1785,6179,4981,1404,768,Tag0,unknown
1.57E+12,0,-265,-5.82E-05,48,41,47,100167,15255,1437,1415,6669,3329,5192,2095,Tag0,unknown
1.57E+12,0,-734,-1.61E-04,30,43,42,85021,16766220,18407,7728,8836,5932,6372,1635,Tag0,unknown
1.57E+12,0,-51,-1.12E-05,43,53,44,503433,94536,16773026,71759,17170,16755070,20935,3012,Tag0,unknown
1.57E+12,0,115,2.53E-05,37,54,61,472035,73209,29761,7279,8544,6119,7917,2758,Tag0,unknown
1.57E+12,0,-274,-6.02E-05,23,54,46,130269,66134,3519,7281,4819,3418,4143,1273,Tag0,unknown
1.57E+12,0,23,5.05E-06,8,44,46,57242,93516,4053,8056,8231,1251,1689,821,Tag0,unknown
1.57E+12,0,-599,-1.32E-04,1,30,58,1060572,262350,25388,16768643,16092,28541,22045,7603,Tag0,unknown
1.57E+12,0,109,2.40E-05,11,34,49,211602,61293,77179,16744851,16745474,28246,16324,5314,Tag0,unknown
1.57E+12,0,73,1.60E-05,14,44,37,746674,273773,85157,16754682,15531,19153,22899,5664,Tag0,unknown
1.57E+12,0,40,8.79E-06,29,66,55,1006438,26136,24416,8715,10051,4383,4869,3497,Tag0,unknown
1.57E+12,0,71,1.56E-05,30,74,46,1261592,72455,11781,16748227,14481,11178,5003,1882,Tag0,unknown
1.57E+12,0,-152,-3.34E-05,41,70,40,142375,11527,11904,6620,14573,8081,2359,1607,Tag0,unknown
1.57E+12,0,65,1.43E-05,48,77,45,50606,16765450,11325,16746051,14330,10169,10266,2212,Tag0,unknown
1.57E+12,0,21,4.61E-06,51,78,45,9322,21167,18392,15001,3621,6003,7917,5878,Tag0,unknown
1.57E+12,0,20,4.39E-06,61,74,45,5472,16754661,15673,5851,7946,17386,6376,8011,Tag0,unknown
1.57E+12,0,-79,-1.74E-05,51,75,43,16750613,5148,2574,1415,247,666,481,16777200,Tag0,unknown
1.57E+12,0,100,2.20E-05,50,84,41,525236,16761605,16774794,16760077,21866,15041,6371,9903,Tag0,unknown
1.57E+12,0,107,2.35E-05,53,69,42,15523,16770913,12313,11189,8442,12306,10957,7466,Tag0,unknown
1.57E+12,0,41,9.01E-06,48,77,42,76199,12054,7304,1856,2016,3253,2903,720,Tag0,unknown
1.57E+12,0,-267,-5.87E-05,61,75,39,23891,17376,8028,26268,25124,16862,14737,8199,Tag0,unknown
1.57E+12,0,48,1.05E-05,60,74,39,16774426,16744695,16748394,25560,18012,7895,11130,3758,Tag0,unknown
1.57E+12,0,21,4.61E-06,54,67,39,78252,22279,2952,2970,3491,2448,3314,2760,Tag0,unknown
1.57E+12,0,17,3.74E-06,56,66,39,356531,16774470,22960,14071,11898,18032,16753207,24999,Tag0,unknown
1.57E+12,0,103,2.26E-05,50,60,39,316562,160584,16772000,23494,26003,16755753,14168,9480,Tag0,unknown
1.57E+12,0,58,1.27E-05,41,56,39,444114,90790,16755485,16748903,9288,6793,6282,1251,Tag0,unknown
1.57E+12,0,23,5.05E-06,47,69,39,235851,85852,16758548,16747652,5694,25930,16764407,24040,Tag0,unknown
1.57E+12,0,65,1.43E-05,53,69,39,17989,25908,4977,17338,15392,14280,8262,2893,Tag0,unknown
1.57E+12,0,91,2.00E-05,56,80,45,18950,14636,8706,27026,5156,13040,10043,6324,Tag0,unknown
1.57E+12,0,59,1.30E-05,64,87,45,318495,16745646,16752092,16754249,24199,12855,10723,5356,Tag0,unknown
1.57E+12,0,26,5.71E-06,64,77,45,82136,74747,21114,13315,30314,14792,13076,9775,Tag0,unknown
1.57E+12,0,42,9.23E-06,67,75,45,283928,9885,5141,4966,8281,9623,1901,1079,Tag0,unknown
1.57E+12,0,41,9.01E-06,57,81,44,28769,20391,16753083,16748950,16813,7747,9114,14445,Tag0,unknown
1.57E+12,0,106,2.33E-05,56,67,44,89537,21119,7376,3906,7244,3185,7837,3075,Tag0,unknown
1.57E+12,0,22,4.83E-06,74,70,40,96378,28411,16746151,10568,23686,16768633,22119,17846,Tag0,unknown
1.57E+12,0,80,1.76E-05,51,66,36,937338,63008,16587,13926,10230,7631,7130,10806,Tag0,unknown
1.57E+12,0,105,2.31E-05,44,38,36,605157,148081,10927,12917,13575,6957,12064,7499,Tag0,unknown
1.57E+12,0,-107,-2.35E-05,41,41,37,437081,16767803,13473,15155,2914,5605,20453,8794,Tag0,unknown
1.57E+12,0,104,2.29E-05,16,34,37,1247393,47170,10440,17160,16085,7572,13448,14587,Tag0,unknown
1.57E+12,0,-291,-6.39E-05,20,30,42,679084,310264,20624,16774998,14784,16747806,26671,16745030,Tag0,unknown
1.57E+12,0,44,9.67E-06,37,29,42,647683,146949,12816,13627,16745382,16746724,16746872,20033,Tag0,unknown
1.57E+12,0,306,6.72E-05,57,29,44,586187,79654,7928,3397,3200,11593,10303,4080,Tag0,unknown
1.57E+12,0,59,1.30E-05,56,40,39,180113,70643,29992,14634,12601,7521,20747,2525,Tag0,unknown
1.57E+12,0,67,1.47E-05,54,50,39,65106,22471,2692,7426,4740,6609,14806,2793,Tag0,unknown
1.57E+12,0,115,2.53E-05,54,35,41,184988,66588,3087,18185,22945,24691,16776,7466,Tag0,unknown
1.57E+12,0,69,1.52E-05,51,51,70,49858,70731,16745901,7347,1299,8380,8303,1561,Tag0,unknown
1.57E+12,0,-281,-6.17E-05,54,51,70,210361,33923,16765121,12965,16744512,15365,16753579,10131,Tag0,unknown
1.57E+12,0,71,1.56E-05,53,57,70,168760,11049,1899,7298,4155,3142,6235,1346,Tag0,unknown
1.57E+12,0,72,1.58E-05,38,64,51,256037,267371,78189,16744674,28459,22998,19040,4863,Tag0,unknown
1.57E+12,0,-270,-5.93E-05,47,64,47,100319,10324,5902,6072,3839,4734,10498,1133,Tag0,unknown
1.57E+12,0,58,1.27E-05,54,64,46,121851,16755458,16751628,6888,16752608,18858,69874,12589,Tag0,unknown
1.57E+12,0,120,2.64E-05,61,61,45,46674,16749516,11309,19854,27009,20505,14226,9329,Tag0,unknown
1.57E+12,0,-331,-7.27E-05,63,57,52,71552,15269,2545,1373,1111,1174,1489,129,Tag0,unknown
1.57E+12,0,-16,-3.52E-06,50,41,66,242914,16746418,2414,3429,3929,2174,479,550,Tag0,unknown
1.57E+12,0,210,4.61E-05,41,37,66,153910,31405,6037,4193,2707,3617,2867,1171,Tag0,unknown
1.57E+12,0,108,2.37E-05,21,27,66,16750643,16774718,3561,9754,1858,2684,2237,2700,Tag0,unknown
1.57E+12,0,73,1.60E-05,43,34,66,6580,9616,12719,4481,19372,19657,22500,5295,Tag0,unknown
timestampMs,poorSignal,eegRawValue,eegRawValueVolts,attention,meditation,blinkStrength,delta,theta,alphaLow,alphaHigh,betaLow,betaHigh,gammaLow,gammaMid,tagEvent,location
1.56778E+12,25,43,9.45E-06,0,0,44,27,1,0,0,0,0,0,0,Tag0,unknown
1.56778E+12,25,37,8.13E-06,0,0,44,27,1,0,0,0,0,0,0,Tag0,unknown
1.56778E+12,0,26,5.71E-06,0,0,95,66472,13593,14377,3143,2320,2437,1389,1539,Tag0,unknown
1.56778E+12,0,107,2.35E-05,0,0,45,25085,19882,9322,13671,4346,4802,4117,2543,Tag0,unknown
1.56778E+12,0,-274,-6.02E-05,0,0,47,284607,13804,4737,5248,5886,3445,3249,1254,Tag0,unknown
1.56778E+12,0,-120,-2.64E-05,51,30,46,141143,8577,3095,3712,2582,4239,2026,926,Tag0,unknown
1.56778E+12,0,91,2.00E-05,51,54,35,363129,8920,16685,8197,1861,4193,12242,2710,Tag0,unknown
1.56778E+12,0,107,2.35E-05,64,38,35,16747782,21952,6226,6806,5259,9383,6867,7337,Tag0,unknown
1.56778E+12,0,42,9.23E-06,75,20,35,19063,26371,5635,5160,6003,9970,23255,2947,Tag0,unknown
1.56778E+12,0,67,1.47E-05,63,10,40,69830,28338,266,4222,4528,4990,4637,1987,Tag0,unknown
1.56778E+12,0,33,7.25E-06,69,1,41,40377,114636,67859,16749145,21456,16762239,16752519,4371,Tag0,unknown
1.56778E+12,0,86,1.89E-05,57,17,41,814301,14721,9280,7208,1386,4113,2067,2125,Tag0,unknown
1.56778E+12,0,121,2.66E-05,41,30,40,267452,70592,14578,4849,1582,8092,7568,3504,Tag0,unknown
1.56778E+12,0,12,2.64E-06,63,30,40,27867,14375,1728,1658,6441,10637,9041,4376,Tag0,unknown
1.56778E+12,0,49,1.08E-05,48,11,38,787668,416589,22684,22165,14663,16745300,30763,13711,Tag0,unknown
1.56778E+12,0,-183,-4.02E-05,56,1,38,16761294,26518,3640,678,5139,7788,7234,5571,Tag0,unknown
1.56778E+12,0,37,8.13E-06,61,1,38,1172494,94777,73405,20167,16746662,24616,16757671,20896,Tag0,unknown
1.56778E+12,0,103,2.26E-05,38,8,38,277004,223145,21523,16753547,19545,16753037,69995,13715,Tag0,unknown
1.56778E+12,0,25,5.49E-06,66,23,38,65530,12601,138,7026,7610,8051,6604,1726,Tag0,unknown
1.56778E+12,0,-286,-6.28E-05,38,27,47,48266,133101,21088,1246,7195,4103,9003,9101,Tag0,unknown
1.56778E+12,0,-295,-6.48E-05,24,14,47,680050,43566,22955,5069,3208,5327,11831,4629,Tag0,unknown
1.56778E+12,0,92,2.02E-05,24,20,47,170613,32532,6147,6786,1604,5179,9164,2032,Tag0,unknown
1.56778E+12,0,-328,-7.21E-05,24,23,47,16745172,8487,3901,3286,7615,5590,16744425,2030,Tag0,unknown
1.56778E+12,0,-282,-6.20E-05,37,16,39,212766,461081,23324,8532,7788,16745017,74988,13165,Tag0,unknown
1.56778E+12,0,-301,-6.61E-05,37,13,40,16758079,32428,2372,2885,1819,1193,2102,2664,Tag0,unknown
1.56778E+12,0,13,2.86E-06,23,8,46,890134,364390,16756473,31424,15780,23600,16756418,15802,Tag0,unknown
1.56778E+12,0,-259,-5.69E-05,23,21,37,197036,27928,23801,16755338,20220,16744408,16753068,16748604,Tag0,unknown
1.56778E+12,0,-275,-6.04E-05,26,43,37,408076,178738,79793,29672,16749332,27591,28699,28527,Tag0,unknown
1.56778E+12,0,23,5.05E-06,50,53,49,818862,82471,2894,31950,6589,24050,16747574,10788,Tag0,unknown
1.56778E+12,0,-261,-5.73E-05,66,77,49,1223632,16758483,16746448,16753720,16302,19551,32480,21279,Tag0,unknown
1.56778E+12,0,53,1.16E-05,70,66,49,8614,2620,2132,3948,4016,6758,21898,2011,Tag0,unknown
1.56778E+12,0,88,1.93E-05,93,56,49,3534,16747803,3593,9669,11452,26268,29573,4691,Tag0,unknown
1.56778E+12,0,17,3.74E-06,87,53,40,931067,98720,29970,21241,11336,29019,26562,8951,Tag0,unknown
1.56778E+12,0,12,2.64E-06,83,37,40,397181,16758515,9228,10486,25314,9442,5844,5013,Tag0,unknown
1.56778E+12,0,28,6.15E-06,54,27,54,440702,102795,16746644,9805,13551,20177,26778,18592,Tag0,unknown
1.56778E+12,0,-278,-6.11E-05,47,35,43,83228,138043,16756820,11987,8938,16756888,27092,10331,Tag0,unknown
1.56778E+12,0,116,2.55E-05,56,27,43,88622,23204,4468,1056,1988,9799,4272,3613,Tag0,unknown
1.56778E+12,0,86,1.89E-05,66,41,39,10278,22526,8405,25944,17706,17395,30254,16704,Tag0,unknown
1.56778E+12,0,36,7.91E-06,91,44,35,16755903,28299,13212,8850,31291,30079,16757587,15463,Tag0,unknown
1.56778E+12,0,2,4.39E-07,80,34,41,104566,82744,8305,5080,12308,8546,7034,8779,Tag0,unknown
1.56778E+12,0,6,1.32E-06,67,38,41,155458,9884,1510,997,1329,1428,4952,1146,Tag0,unknown
1.56778E+12,0,75,1.65E-05,70,35,41,4872,24703,12188,11465,7984,16972,16081,12616,Tag0,unknown
1.56778E+12,0,105,2.31E-05,50,38,41,233300,16754516,7220,10151,1088,6802,15469,5713,Tag0,unknown
1.56778E+12,0,34,7.47E-06,48,44,41,16773448,16967,1249,2710,1590,1426,7377,453,Tag0,unknown
1.56778E+12,0,19,4.17E-06,27,56,41,384438,16751492,20787,6832,3842,1872,11641,5543,Tag0,unknown
1.56778E+12,0,-36,-7.91E-06,26,38,41,594294,81518,11911,1123,15656,26624,16745222,26252,Tag0,unknown
1.56778E+12,0,52,1.14E-05,27,41,69,388158,15852,5024,4497,2003,2762,5721,1498,Tag0,unknown
1.56778E+12,0,65,1.43E-05,14,35,69,1093580,278519,14992,22381,3928,8967,7978,10086,Tag0,unknown
1.56778E+12,0,118,2.59E-05,23,37,37,1665113,187613,139966,71202,15149,23897,16762789,71997,Tag0,unknown
1.56778E+12,0,72,1.58E-05,1,66,37,126902,18106,13070,9390,2246,2307,8811,626,Tag0,unknown
1.56778E+12,0,-269,-5.91E-05,1,66,38,317753,142033,10274,4940,4197,6406,7072,10301,Tag0,unknown
1.56778E+12,0,-299,-6.57E-05,4,41,42,1767055,808886,68855,15189,85037,16770105,70939,71979,Tag0,unknown
1.56778E+12,0,-100,-2.20E-05,10,24,42,778468,74844,19422,6465,6631,8193,16747314,4784,Tag0,unknown
1.56778E+12,0,-259,-5.69E-05,14,17,42,1143755,95939,6231,16750638,11093,13883,24816,4609,Tag0,unknown
1.56778E+12,0,124,2.72E-05,34,27,42,288104,62781,24129,10363,3319,27444,14574,8562,Tag0,unknown
1.56778E+12,0,10,2.20E-06,43,48,42,706045,16765647,13765,14419,4097,14121,12433,9346,Tag0,unknown
1.56778E+12,0,-22,-4.83E-06,47,40,42,629917,40776,8299,14202,4350,13326,14707,11538,Tag0,unknown
1.56778E+12,0,45,9.89E-06,60,35,58,1633874,16748972,4547,10979,6963,14884,13051,8689,Tag0,unknown
1.56778E+12,0,64,1.41E-05,51,27,45,862086,69314,972,10196,5596,7207,10232,5716,Tag0,unknown
timestampMs,poorSignal,eegRawValue,eegRawValueVolts,attention,meditation,blinkStrength,delta,theta,alphaLow,alphaHigh,betaLow,betaHigh,gammaLow,gammaMid,tagEvent,location
1.56778E+12,25,-283,-6.22E-05,0,0,34,94,16777148,16777127,107,14,16,15,9,Tag0,unknown
1.56778E+12,0,87,1.91E-05,0,0,52,129604,16749965,12062,9388,8493,6175,6774,5534,Tag0,unknown
1.56778E+12,0,-314,-6.90E-05,0,0,44,3467494,122295,29620,12803,24627,22186,28189,9038,Tag0,unknown
1.56778E+12,0,26,5.71E-06,0,0,44,24099,27136,8087,8478,17063,21298,10995,17823,Tag0,unknown
1.56778E+12,0,67,1.47E-05,41,51,44,16763705,4540,5568,6029,1222,3656,4852,1022,Tag0,unknown
1.56778E+12,0,-111,-2.44E-05,27,63,41,44142,79012,83845,17548,15247,9253,13154,4441,Tag0,unknown
1.56778E+12,0,-296,-6.50E-05,41,64,41,16745269,14201,9491,10699,13694,19729,21653,6331,Tag0,unknown
1.56778E+12,0,115,2.53E-05,47,67,41,197785,9516,5988,2434,2294,4359,5153,1245,Tag0,unknown
1.56778E+12,0,40,8.79E-06,50,60,44,79820,28385,11591,16748413,27290,24291,7230,7789,Tag0,unknown
1.56778E+12,0,18,3.96E-06,66,51,44,143769,16771890,19937,25454,16112,21524,14267,6326,Tag0,unknown
1.56778E+12,0,50,1.10E-05,66,51,44,13667,19310,5233,12139,6237,17877,12600,5018,Tag0,unknown
1.56778E+12,0,23,5.05E-06,47,51,39,33956,58069,16763615,15783,14517,9825,6310,4566,Tag0,unknown
1.56778E+12,0,70,1.54E-05,38,48,40,16765670,77217,8319,16756369,19631,17367,7188,3943,Tag0,unknown
1.56778E+12,0,87,1.91E-05,35,48,40,494481,34363,26451,16757972,16912,30056,20815,7632,Tag0,unknown
1.56778E+12,0,88,1.93E-05,14,53,44,44721,16764546,30380,11080,7998,8494,10492,14366,Tag0,unknown
1.56778E+12,0,41,9.01E-06,27,56,54,32700,16755428,29666,16750559,16761468,18222,10139,10318,Tag0,unknown
1.56778E+12,0,41,9.01E-06,48,50,54,27371,4242,2493,270,1767,5032,3568,1840,Tag0,unknown
1.56778E+12,0,-333,-7.32E-05,53,54,54,16746812,16500,23141,16813,18161,14628,12793,7015,Tag0,unknown
1.56778E+12,0,36,7.91E-06,48,47,47,43020,31783,194,9882,3058,2440,3349,395,Tag0,unknown
1.56778E+12,0,54,1.19E-05,54,38,47,37323,9961,3637,2872,4340,4299,1348,1284,Tag0,unknown
1.56778E+12,0,16,3.52E-06,60,38,47,14045,4378,4683,3864,9783,16641,8740,7437,Tag0,unknown
1.56778E+12,0,24,5.27E-06,69,34,58,31036,11956,4865,13921,9807,20956,17680,7076,Tag0,unknown
1.56778E+12,0,42,9.23E-06,70,29,58,139036,13608,2239,761,1038,1405,2049,527,Tag0,unknown
1.56778E+12,0,75,1.65E-05,48,38,44,80491,30074,14413,10786,8199,2121,5640,2771,Tag0,unknown
1.56778E+12,0,-95,-2.09E-05,37,38,47,77024,32362,4169,13096,13010,22613,16756904,8512,Tag0,unknown
1.56778E+12,0,-267,-5.87E-05,10,34,47,46886,150455,16758917,6628,7580,14076,17458,17098,Tag0,unknown
1.56778E+12,0,-364,-8.00E-05,27,41,41,25147,27254,12016,11602,3815,17649,14770,12581,Tag0,unknown
1.56778E+12,0,34,7.47E-06,38,23,41,63622,248937,32502,15914,31661,16745884,16751541,8580,Tag0,unknown
1.56778E+12,0,-274,-6.02E-05,44,17,54,12673,25765,2392,8463,8664,31753,16746532,20357,Tag0,unknown
1.56778E+12,0,86,1.89E-05,51,1,54,177668,18434,771,881,2435,2530,1956,1875,Tag0,unknown
1.56778E+12,0,-276,-6.06E-05,51,7,54,240187,27118,29484,14546,4483,22554,23416,26810,Tag0,unknown
1.56778E+12,0,67,1.47E-05,40,14,46,1182352,198206,16744993,21675,4950,5081,7867,20413,Tag0,unknown
1.56778E+12,0,123,2.70E-05,13,13,46,185441,260996,29591,12548,10078,15689,16758027,19612,Tag0,unknown
1.56778E+12,0,107,2.35E-05,21,27,46,62566,52828,11312,16744929,5604,16744721,16753155,21352,Tag0,unknown
1.56778E+12,0,-102,-2.24E-05,14,20,46,206005,154822,16744552,16745646,19104,26382,16744453,9322,Tag0,unknown
1.56778E+12,0,102,2.24E-05,37,14,39,535058,27970,2305,4634,3715,6978,15113,3339,Tag0,unknown
1.56778E+12,0,57,1.25E-05,41,14,39,723578,16746112,1573,3239,2051,2637,2602,924,Tag0,unknown
1.56778E+12,0,71,1.56E-05,43,16,36,603020,96297,16750393,13325,12631,16752277,16756869,11818,Tag0,unknown
1.56778E+12,0,-294,-6.46E-05,66,16,36,30654,3312,10784,7424,19462,27862,23106,11587,Tag0,unknown
1.56778E+12,0,9,1.98E-06,75,20,45,89193,16763251,18528,4140,22537,31218,16751425,17226,Tag0,unknown
1.56778E+12,0,5,1.10E-06,100,20,47,19512,5013,1841,1231,14939,7266,10286,1920,Tag0,unknown
1.56778E+12,0,40,8.79E-06,100,23,47,25554,11118,7693,5618,5264,13543,7486,6933,Tag0,unknown
1.56778E+12,0,41,9.01E-06,91,20,47,16747308,16768922,6799,11695,3223,19021,16771120,6558,Tag0,unknown
1.56778E+12,0,6,1.32E-06,78,14,35,47282,16747351,2008,3509,2637,4940,11024,2106,Tag0,unknown
1.56778E+12,0,60,1.32E-05,70,23,59,84494,17864,3541,3940,648,12146,8379,2430,Tag0,unknown
1.56778E+12,0,-70,-1.54E-05,50,16,59,179459,16768649,10001,8840,9612,4506,3361,4110,Tag0,unknown
1.56778E+12,0,0,0,57,16,59,21314,16761405,19173,6916,14467,16752941,18423,21334,Tag0,unknown
1.56778E+12,0,11,2.42E-06,61,35,59,132247,15523,5459,12004,3193,5115,11720,2399,Tag0,unknown
1.56778E+12,0,71,1.56E-05,70,35,59,2749,9689,3035,6981,5159,27662,28196,12850,Tag0,unknown
1.56778E+12,0,60,1.32E-05,97,34,59,8789,21356,1486,12254,8804,16745360,24906,15482,Tag0,unknown
1.56778E+12,0,100,2.20E-05,88,35,59,16767661,16744604,7754,6776,7552,8060,4742,2439,Tag0,unknown
1.56778E+12,0,18,3.96E-06,100,24,42,16773274,6204,13868,1432,5108,16756171,16154,8130,Tag0,unknown
1.56778E+12,0,44,9.67E-06,100,30,55,16751672,12465,14062,13949,8994,16747199,16741,14636,Tag0,unknown
1.56778E+12,0,51,1.12E-05,96,34,42,90478,6963,2433,2941,4614,10075,5007,1408,Tag0,unknown
1.56778E+12,0,112,2.46E-05,87,43,47,39894,22112,26047,2113,4847,3565,5215,2765,Tag0,unknown
1.56778E+12,0,-284,-6.24E-05,61,56,38,17836,10613,13148,5926,5787,3392,9781,1210,Tag0,unknown
1.56778E+12,0,74,1.63E-05,50,61,38,16764221,6715,3695,8338,5570,4809,3440,1610,Tag0,unknown
1.56778E+12,0,81,1.78E-05,57,57,38,8319,3899,4773,1684,6974,27323,23471,9534,Tag0,unknown
1.56778E+12,0,86,1.89E-05,60,38,38,271049,271358,18235,23413,15296,31597,16750682,11713,Tag0,unknown
timestampMs,poorSignal,eegRawValue,eegRawValueVolts,attention,meditation,blinkStrength,delta,theta,alphaLow,alphaHigh,betaLow,betaHigh,gammaLow,gammaMid,tagEvent,location
1.56778E+12,0,43,9.45E-06,60,53,51,1102688,563716,37469,158936,210803,275660,16763494,28936,Tag0,unknown
1.56778E+12,25,17,3.74E-06,0,0,51,231,63,11,14,12,8,14,9,Tag0,unknown
1.56778E+12,25,88,1.93E-05,0,0,47,154689,16775226,26469,27848,20142,6354,4521,6805,Tag0,unknown
1.56778E+12,25,-110,-2.42E-05,0,0,36,154689,16775226,26469,27848,20142,6354,4521,6805,Tag0,unknown
1.56778E+12,0,-323,-7.10E-05,0,0,47,148696,104814,29810,9311,20221,28445,22729,22952,Tag0,unknown
1.56778E+12,0,56,1.23E-05,0,0,46,148696,104814,29810,9311,20221,28445,22729,22952,Tag0,unknown
1.56778E+12,0,-356,-7.82E-05,53,51,46,9218,10590,11185,3887,7346,13231,10420,19626,Tag0,unknown
1.56778E+12,0,57,1.25E-05,53,51,45,9218,10590,11185,3887,7346,13231,10420,19626,Tag0,unknown
1.56778E+12,0,91,2.00E-05,67,69,39,16767915,18536,2883,5772,8270,5432,2984,2614,Tag0,unknown
1.56778E+12,0,-267,-5.87E-05,64,87,39,344699,73813,17118,16759288,5214,15492,24375,25875,Tag0,unknown
1.56778E+12,0,52,1.14E-05,61,88,34,269158,16753922,26555,17438,9584,32596,21937,8284,Tag0,unknown
1.56778E+12,0,307,6.75E-05,37,90,55,16762387,11972,2186,4212,1825,724,1471,982,Tag0,unknown
1.56778E+12,0,40,8.79E-06,40,94,40,145995,16745654,9831,28358,27178,19751,13428,9010,Tag0,unknown
1.56778E+12,0,114,2.50E-05,35,88,55,710753,121142,16763232,21443,12790,19002,16751983,7363,Tag0,unknown
1.56778E+12,0,39,8.57E-06,23,91,55,311985,74841,74067,19070,32195,21198,16754379,15511,Tag0,unknown
1.56778E+12,0,5,1.10E-06,40,87,55,545689,78267,16338,10085,7621,25131,30682,11823,Tag0,unknown
1.56778E+12,0,103,2.26E-05,41,91,55,1678518,81557,151331,16749283,16749206,94569,16748853,20680,Tag0,unknown
1.56778E+12,0,10,2.20E-06,60,93,39,572355,16745254,14811,7953,2293,23098,13849,11334,Tag0,unknown
1.56778E+12,0,-89,-1.96E-05,64,80,39,604675,16768546,6070,7668,10074,13563,8422,3696,Tag0,unknown
1.56778E+12,0,76,1.67E-05,41,75,39,552402,122122,16280,11121,3569,6002,8464,1200,Tag0,unknown
1.56778E+12,0,45,9.89E-06,43,57,39,790246,65479,5878,11458,13133,31079,18985,9978,Tag0,unknown
1.56778E+12,0,108,2.37E-05,30,56,46,20474,80163,7354,22091,9556,14372,16762104,8971,Tag0,unknown
1.56778E+12,0,96,2.11E-05,38,66,46,24396,23348,18871,14357,19573,21088,16754727,9254,Tag0,unknown
1.56778E+12,0,-264,-5.80E-05,61,77,39,16768923,16769905,12337,29199,13875,26017,79601,17148,Tag0,unknown
1.56778E+12,0,61,1.34E-05,41,64,46,1525487,95205,3608,2764,31223,5519,6731,11097,Tag0,unknown
1.56778E+12,0,-278,-6.11E-05,51,75,40,154725,5894,10548,1417,2049,6326,9332,2904,Tag0,unknown
1.56778E+12,0,9,1.98E-06,40,69,40,653091,118028,16774829,21640,16745312,16744635,22892,7148,Tag0,unknown
1.56778E+12,0,21,4.61E-06,41,67,57,150424,21888,5993,9166,9451,10841,17445,1678,Tag0,unknown
1.56778E+12,0,89,1.96E-05,57,78,46,167763,16750056,4769,2250,5700,13234,8705,2896,Tag0,unknown
1.56778E+12,0,86,1.89E-05,38,74,33,1968465,268471,16768142,82727,14705,21220,23218,18866,Tag0,unknown
1.56778E+12,0,84,1.85E-05,41,77,50,16764009,7373,1419,2680,1252,1767,1625,770,Tag0,unknown
1.56778E+12,0,-291,-6.39E-05,44,75,42,133973,16745595,8646,19505,31235,24197,10968,11812,Tag0,unknown
1.56778E+12,0,264,5.80E-05,38,81,42,96343,54173,16745397,8863,15879,23270,22235,6454,Tag0,unknown
1.56778E+12,0,27,5.93E-06,56,78,46,251423,10452,4854,2459,7910,6467,6202,1718,Tag0,unknown
1.56778E+12,0,-257,-5.65E-05,78,77,46,127927,2960,6306,2051,3410,20732,4513,1182,Tag0,unknown
1.56778E+12,0,116,2.55E-05,81,75,46,32810,11881,3779,2598,1194,9393,3118,1451,Tag0,unknown
1.56778E+12,0,-309,-6.79E-05,87,78,38,85290,13440,2448,5676,2940,5906,11418,1414,Tag0,unknown
1.56778E+12,0,-258,-5.67E-05,70,75,38,160299,16753270,7352,3942,5120,4074,18115,1877,Tag0,unknown
1.56778E+12,0,-282,-6.20E-05,44,75,38,67770,16745021,4546,10025,7317,4814,12731,2028,Tag0,unknown
1.56778E+12,0,104,2.29E-05,43,77,38,39577,24385,9313,10095,14196,18464,31620,12947,Tag0,unknown
1.56778E+12,0,17,3.74E-06,34,81,38,250875,30050,13344,13730,1923,6397,17965,2186,Tag0,unknown
1.56778E+12,0,-311,-6.83E-05,37,80,38,990443,16749527,5742,3058,5762,5935,5663,5223,Tag0,unknown
1.56778E+12,0,68,1.49E-05,47,78,47,145754,16756502,19072,2013,8033,16644,4084,3075,Tag0,unknown
1.56778E+12,0,35,7.69E-06,47,74,47,21513,6222,1423,615,1438,4053,11425,5324,Tag0,unknown
1.56778E+12,0,22,4.83E-06,66,61,45,107148,28580,1732,13804,23396,29183,16756663,15854,Tag0,unknown
1.56778E+12,0,71,1.56E-05,75,64,45,79033,21732,5747,2019,2862,9018,4243,2234,Tag0,unknown
1.56778E+12,0,26,5.71E-06,61,70,41,182278,16747546,8391,23923,8214,4706,12984,2702,Tag0,unknown
1.56778E+12,0,24,5.27E-06,74,67,41,16749152,4256,582,2428,3774,17392,26752,2185,Tag0,unknown
1.56778E+12,0,34,7.47E-06,63,63,41,75035,29717,727,5016,9913,12143,11864,2059,Tag0,unknown
1.56778E+12,0,23,5.05E-06,61,70,40,91520,11680,6760,7319,7339,6724,6121,3632,Tag0,unknown
1.56778E+12,0,73,1.60E-05,77,61,41,16769261,8847,3297,961,3986,5635,3346,870,Tag0,unknown
1.56778E+12,0,-314,-6.90E-05,60,77,46,16776740,13000,11792,5973,4678,12112,3718,7300,Tag0,unknown
1.56778E+12,0,85,1.87E-05,60,75,47,16761358,28041,223,3552,2604,10983,4987,3477,Tag0,unknown
1.56778E+12,0,32,7.03E-06,63,69,40,2432,29055,7464,11710,11207,17042,23531,1993,Tag0,unknown
1.56778E+12,0,87,1.91E-05,57,75,40,71321,11490,1409,6582,4233,4834,5630,289,Tag0,unknown
1.56778E+12,0,69,1.52E-05,50,63,46,160652,33645,15126,9149,25353,16968,22322,3310,Tag0,unknown
1.56778E+12,0,40,8.79E-06,41,64,45,96901,16745417,2702,2040,1252,5951,8556,2209,Tag0,unknown
1.56778E+12,0,41,9.01E-06,26,60,58,1687637,226695,16759545,7492,13898,19684,16744668,8112,Tag0,unknown
1.56778E+12,0,117,2.57E-05,23,54,41,95749,16747927,3461,8440,7791,8628,8339,3166,Tag0,unknown
timestampMs,poorSignal,eegRawValue,eegRawValueVolts,attention,meditation,blinkStrength,delta,theta,alphaLow,alphaHigh,betaLow,betaHigh,gammaLow,gammaMid,tagEvent,location
1.56778E+12,25,44,9.67E-06,0,0,101,7,2,0,0,0,1,0,0,Tag0,unknown
1.56778E+12,25,-78,-1.71E-05,0,0,103,378,46,15,7,13,7,8,7,Tag0,unknown
1.56778E+12,0,-278,-6.11E-05,0,0,103,64313,12685,5878,7731,2602,2204,1094,1215,Tag0,unknown
1.56778E+12,0,40,8.79E-06,0,0,47,285439,29744,9443,21985,22311,17403,11560,6828,Tag0,unknown
1.56778E+12,0,38,8.35E-06,0,0,39,169562,64395,8783,83696,16750866,22455,13372,8137,Tag0,unknown
1.56778E+12,0,80,1.76E-05,51,30,40,796329,16755906,9268,9535,13151,18708,15821,7130,Tag0,unknown
1.56778E+12,0,44,9.67E-06,67,16,40,941596,16774514,12831,5493,14579,26993,12336,12606,Tag0,unknown
1.56778E+12,0,27,5.93E-06,91,13,40,23732,23725,6737,17418,17081,32304,5821,5833,Tag0,unknown
1.56778E+12,0,-155,-3.41E-05,77,17,40,191678,53136,16758110,23356,27290,11276,9252,7603,Tag0,unknown
1.56778E+12,0,105,2.31E-05,47,35,40,75832,210375,83248,70980,24873,10954,17173,5419,Tag0,unknown
1.56778E+12,0,68,1.49E-05,37,48,46,24670,16753560,6966,14690,4237,12991,20127,10475,Tag0,unknown
1.56778E+12,0,69,1.52E-05,4,44,46,476916,30685,5362,4086,3230,2017,5905,1709,Tag0,unknown
1.56778E+12,0,45,9.89E-06,10,40,38,146330,130688,16746011,16763433,22106,16115,16112,6690,Tag0,unknown
1.56778E+12,0,-376,-8.26E-05,24,30,38,916027,141837,16747967,27353,17548,16531,12704,9118,Tag0,unknown
1.56778E+12,0,18,3.96E-06,20,38,38,1379765,97992,16748839,31668,25046,22981,15004,6858,Tag0,unknown
1.56778E+12,0,124,2.72E-05,29,57,37,16774477,21778,15453,9065,2899,5561,4210,1840,Tag0,unknown
1.56778E+12,0,51,1.12E-05,21,43,68,49058,16773344,5713,5322,7029,1669,2389,1233,Tag0,unknown
1.56778E+12,0,33,7.25E-06,41,35,68,158353,17592,3965,3339,2831,9844,1481,737,Tag0,unknown
1.56778E+12,0,-258,-5.67E-05,47,29,68,6889,31380,7848,15061,16654,11443,16435,5917,Tag0,unknown
1.56778E+12,0,67,1.47E-05,47,10,45,370987,16747357,2780,10298,4654,5630,12419,16423,Tag0,unknown
1.56778E+12,0,27,5.93E-06,78,23,46,16757305,9930,4146,1660,3374,4812,2518,2122,Tag0,unknown
1.56778E+12,0,72,1.58E-05,61,40,46,16763331,20015,6225,11199,5124,4078,5239,631,Tag0,unknown
1.56778E+12,0,-120,-2.64E-05,66,21,39,16753089,16751655,2471,5010,15650,14568,11531,7346,Tag0,unknown
1.56778E+12,0,1,2.20E-07,60,43,39,414501,16759362,16758087,10979,6956,7444,5552,2258,Tag0,unknown
1.56778E+12,0,10,2.20E-06,54,53,39,355863,16748681,19381,9801,7674,13837,13331,6256,Tag0,unknown
1.56778E+12,0,101,2.22E-05,74,51,47,13816,15490,16536,13657,18337,23054,18476,7295,Tag0,unknown
1.56778E+12,0,67,1.47E-05,66,53,45,16776305,21158,914,2227,3606,4889,5731,2522,Tag0,unknown
1.56778E+12,0,59,1.30E-05,91,35,46,138821,4428,2068,1458,2754,3727,9833,1321,Tag0,unknown
1.56778E+12,0,-163,-3.58E-05,100,29,40,29193,6462,2118,3071,2268,4863,2045,2177,Tag0,unknown
1.56778E+12,0,104,2.29E-05,88,20,40,25101,16761427,21433,10637,16769587,14857,11609,15737,Tag0,unknown
1.56778E+12,0,8,1.76E-06,77,48,47,168514,16776466,16748317,23330,18898,11075,11576,5035,Tag0,unknown
1.56778E+12,0,-249,-5.47E-05,57,57,47,416137,25736,14945,22678,31867,13484,10566,13307,Tag0,unknown
1.56778E+12,0,67,1.47E-05,64,67,56,278562,82614,16750106,16750148,22275,16754528,20381,4533,Tag0,unknown
1.56778E+12,0,-338,-7.43E-05,77,43,56,16758935,31274,5068,1038,4032,7774,5825,645,Tag0,unknown
1.56778E+12,0,43,9.45E-06,69,21,47,822643,210217,20740,6644,29850,16744752,16756689,8254,Tag0,unknown
1.56778E+12,0,149,3.27E-05,84,16,47,9467,23725,9308,25713,23628,16759053,16756611,3089,Tag0,unknown
1.56778E+12,0,28,6.15E-06,57,14,47,252720,16764744,13649,14341,6065,2766,7920,1219,Tag0,unknown
1.56778E+12,0,28,6.15E-06,60,40,47,31101,16268,5676,26664,27010,11187,19838,2930,Tag0,unknown
1.56778E+12,0,43,9.45E-06,61,66,55,44682,13265,10805,1512,7270,4521,4726,1261,Tag0,unknown
1.56778E+12,0,56,1.23E-05,37,56,55,417278,16750689,6316,2745,3832,5419,1777,1339,Tag0,unknown
1.56778E+12,0,80,1.76E-05,47,54,60,16756763,27388,6168,4854,774,3188,3988,1353,Tag0,unknown
1.56778E+12,0,60,1.32E-05,50,61,60,6391,20853,15192,24424,4860,18515,3786,8876,Tag0,unknown
1.56778E+12,0,72,1.58E-05,60,61,60,6316,18972,2283,18214,9490,15640,16758,7111,Tag0,unknown
1.56778E+12,0,4,8.79E-07,56,81,45,268866,16761308,25331,20765,4100,7059,5002,2410,Tag0,unknown
1.56778E+12,0,55,1.21E-05,60,70,39,224181,16756486,1971,8272,8592,5630,3422,1210,Tag0,unknown
1.56778E+12,0,0,0,53,35,39,40511,28452,1250,1214,9944,6165,3206,1881,Tag0,unknown
1.56778E+12,0,67,1.47E-05,51,37,43,326930,23252,13786,22193,23187,24332,31262,8906,Tag0,unknown
1.56778E+12,0,72,1.58E-05,61,37,43,470559,24571,12696,23564,13553,10691,17749,7070,Tag0,unknown
1.56778E+12,0,83,1.82E-05,67,67,43,16689,23968,30629,21998,2815,13300,30042,10501,Tag0,unknown
1.56778E+12,0,87,1.91E-05,51,93,36,411239,131178,16757911,20440,31958,10916,16759447,16749001,Tag0,unknown
1.56778E+12,0,100,2.20E-05,57,90,36,154432,21254,9411,13176,14375,24619,27254,14041,Tag0,unknown
1.56778E+12,0,74,1.63E-05,61,64,40,131735,74364,10474,5219,16758841,22294,16747214,20277,Tag0,unknown
1.56778E+12,0,73,1.60E-05,67,38,40,27599,16758335,11624,6000,14101,21442,29059,21151,Tag0,unknown
1.56778E+12,0,72,1.58E-05,96,53,47,189532,11576,16754351,22527,13574,16746271,28463,6526,Tag0,unknown
1.56778E+12,0,64,1.41E-05,87,43,47,181910,16768956,5716,9501,1651,19334,29571,17533,Tag0,unknown
1.56778E+12,0,75,1.65E-05,91,57,47,11881,28917,3865,14135,13521,18119,27950,9021,Tag0,unknown
1.56778E+12,0,44,9.67E-06,91,56,47,159346,16768806,7370,11185,16844,24484,16751013,10387,Tag0,unknown
1.56778E+12,0,-348,-7.65E-05,83,53,47,75541,8313,10881,3252,828,5485,2695,2156,Tag0,unknown
1.56778E+12,0,-267,-5.87E-05,66,48,41,58466,12884,1403,561,659,1119,1898,188,Tag0,unknown
timestampMs,poorSignal,eegRawValue,eegRawValueVolts,attention,meditation,blinkStrength,delta,theta,alphaLow,alphaHigh,betaLow,betaHigh,gammaLow,gammaMid,tagEvent,location
1.56778E+12,25,43,9.45E-06,0,0,45,16,1,0,0,0,0,0,0,Tag0,unknown
1.56778E+12,25,26,5.71E-06,0,0,119,16777201,26,5,5,5,4,8,7,Tag0,unknown
1.56778E+12,0,58,1.27E-05,0,0,119,177001,27514,16950,25550,4261,2688,791,2092,Tag0,unknown
1.56778E+12,0,73,1.60E-05,0,0,119,16749774,16774890,13593,8826,8540,18711,13665,2800,Tag0,unknown
1.56778E+12,0,-265,-5.82E-05,0,0,49,84157,31741,5225,27883,16750186,16758462,12316,3080,Tag0,unknown
1.56778E+12,0,104,2.29E-05,48,41,49,93072,13018,16994,4363,15240,13036,15762,3619,Tag0,unknown
1.56778E+12,0,-273,-6.00E-05,57,40,44,9577,24470,5736,14218,10013,19714,18337,4076,Tag0,unknown
1.56778E+12,0,58,1.27E-05,64,40,44,16773826,5444,4295,664,3073,3310,4550,1629,Tag0,unknown
1.56778E+12,0,73,1.60E-05,74,38,44,16752536,26291,5314,17609,18773,17971,8639,3981,Tag0,unknown
1.56778E+12,0,22,4.83E-06,60,30,44,71165,19542,5564,4816,2415,2317,1936,1136,Tag0,unknown
1.56778E+12,0,36,7.91E-06,51,43,47,86070,25919,24677,16527,4023,7111,2243,5444,Tag0,unknown
1.56778E+12,0,88,1.93E-05,51,56,44,59900,4082,23804,1448,12178,11096,13404,7616,Tag0,unknown
1.56778E+12,0,115,2.53E-05,50,69,42,539441,22052,19731,17946,19621,16444,27151,5751,Tag0,unknown
1.56778E+12,0,71,1.56E-05,69,60,45,16774048,2853,1360,462,1543,5785,1401,1544,Tag0,unknown
1.56778E+12,0,1,2.20E-07,74,48,45,213134,132375,16754229,16755735,28156,16744670,24542,9981,Tag0,unknown
1.56778E+12,0,-308,-6.77E-05,66,44,45,317270,38129,84702,14103,8478,26375,26011,19203,Tag0,unknown
1.56778E+12,0,76,1.67E-05,53,27,61,1067902,187760,24469,28647,18544,16157,20751,8806,Tag0,unknown
1.56778E+12,0,41,9.01E-06,38,26,61,27765,69145,6392,11112,7891,14449,16754395,5696,Tag0,unknown
1.56778E+12,0,74,1.63E-05,40,14,61,47660,15395,2222,1481,4495,3572,5177,5648,Tag0,unknown
1.56778E+12,0,-338,-7.43E-05,50,13,61,16763212,16157,20642,2277,6395,15408,14181,3581,Tag0,unknown
1.56778E+12,0,64,1.41E-05,54,16,41,178572,184673,82434,5800,16745375,16744731,18080,4844,Tag0,unknown
1.56778E+12,0,7,1.54E-06,54,16,41,178572,184673,82434,5800,16745375,16744731,18080,4844,Tag0,unknown
1.56778E+12,0,36,7.91E-06,60,34,45,674730,83976,14473,19828,15020,14737,26149,8210,Tag0,unknown
1.56778E+12,0,102,2.24E-05,60,38,45,16748260,18050,31221,9744,3568,29362,5832,4794,Tag0,unknown
1.56778E+12,0,82,1.80E-05,70,35,45,26242,16763236,10855,7409,8045,16747275,16745435,4030,Tag0,unknown
1.56778E+12,0,50,1.10E-05,70,35,45,26242,16763236,10855,7409,8045,16747275,16745435,4030,Tag0,unknown
1.56778E+12,0,11,2.42E-06,81,43,45,10511,9062,5917,6329,6476,15013,16311,4051,Tag0,unknown
1.56778E+12,0,80,1.76E-05,77,37,45,22698,13103,9623,1596,4893,6688,4657,467,Tag0,unknown
1.56778E+12,0,1,2.20E-07,81,37,45,11340,7897,1239,5903,8460,14192,23544,8952,Tag0,unknown
1.56778E+12,0,51,1.12E-05,70,37,45,78033,12969,3776,13862,14163,2835,3800,1173,Tag0,unknown
1.56778E+12,0,20,4.39E-06,66,41,45,4157,11066,4466,18967,15055,13748,31770,13330,Tag0,unknown
1.56778E+12,0,45,9.89E-06,57,51,44,118110,16750196,16757099,32277,27534,10099,13885,4108,Tag0,unknown
1.56778E+12,0,44,9.67E-06,61,50,44,16749094,8754,4166,2966,9283,20704,15254,3570,Tag0,unknown
1.56778E+12,0,73,1.60E-05,63,30,44,275440,145430,18508,10789,25898,21666,14857,4984,Tag0,unknown
1.56778E+12,0,23,5.05E-06,69,27,44,12160,3020,8980,6331,13467,16213,8644,4109,Tag0,unknown
1.56778E+12,0,11,2.42E-06,74,24,37,284409,10588,9996,6233,7029,3769,3553,777,Tag0,unknown
1.56778E+12,0,72,1.58E-05,63,37,37,3956,19734,12916,3781,9157,10942,22140,3709,Tag0,unknown
1.56778E+12,0,67,1.47E-05,69,63,56,58804,3575,1719,8682,1652,4725,2550,3716,Tag0,unknown
1.56778E+12,0,82,1.80E-05,61,63,56,25255,24684,7665,16238,15876,12270,23303,6457,Tag0,unknown
1.56778E+12,0,41,9.01E-06,64,37,56,89772,12352,1054,878,1997,3098,6193,1092,Tag0,unknown
1.56778E+12,0,57,1.25E-05,64,41,44,800050,11185,5234,26277,26380,11823,14408,13412,Tag0,unknown
1.56778E+12,0,59,1.30E-05,61,27,44,428622,32388,19722,1520,8799,11729,16746708,9198,Tag0,unknown
1.56778E+12,0,59,1.30E-05,54,20,53,154689,54140,21640,20455,23598,18838,16752881,17605,Tag0,unknown
1.56778E+12,0,98,2.15E-05,50,37,53,845051,142870,16750133,32251,14876,23676,16749215,14490,Tag0,unknown
1.56778E+12,0,96,2.11E-05,50,20,38,75492,28994,4737,2042,2742,10437,6188,2985,Tag0,unknown
1.56778E+12,0,54,1.19E-05,38,4,43,176932,86751,12462,339,1680,4266,5529,5257,Tag0,unknown
1.56778E+12,0,20,4.39E-06,43,1,43,51460,79974,4726,6752,9362,23439,16750441,9538,Tag0,unknown
1.56778E+12,0,-101,-2.22E-05,41,1,43,824430,160646,16745429,20650,14721,21937,30154,6836,Tag0,unknown
1.56778E+12,0,54,1.19E-05,44,1,43,8619,9204,9259,9117,21602,11942,16754791,27583,Tag0,unknown
1.56778E+12,0,35,7.69E-06,56,11,43,39968,17921,5671,1805,2015,4628,4093,1567,Tag0,unknown
1.56778E+12,0,44,9.67E-06,63,34,43,8182,14874,2212,21621,7938,22711,16747211,2103,Tag0,unknown
1.56778E+12,0,38,8.35E-06,75,48,43,13027,6213,24621,9053,19670,18182,21654,6387,Tag0,unknown
1.56778E+12,0,75,1.65E-05,69,44,40,16774130,88636,16755717,6008,5821,30840,16189,6474,Tag0,unknown
1.56778E+12,0,-258,-5.67E-05,66,37,66,227121,46684,6711,15306,11849,18915,25051,5561,Tag0,unknown
1.56778E+12,0,-171,-3.76E-05,50,29,66,979709,238746,96480,13133,20186,22695,25150,14833,Tag0,unknown
1.56778E+12,0,77,1.69E-05,38,29,66,216077,29302,25427,6915,3128,6228,8016,2506,Tag0,unknown
1.56778E+12,0,54,1.19E-05,47,35,66,10343,4684,6260,17968,17947,20068,16747168,13443,Tag0,unknown
1.56778E+12,0,18,3.96E-06,54,47,47,95573,5228,1991,3134,4191,4011,5020,5697,Tag0,unknown
1.56778E+12,0,-195,-4.28E-05,63,53,35,20630,16745852,18205,18178,13467,13955,32573,5789,Tag0,unknown
timestampMs,poorSignal,eegRawValue,eegRawValueVolts,attention,meditation,blinkStrength,delta,theta,alphaLow,alphaHigh,betaLow,betaHigh,gammaLow,gammaMid,tagEvent,location
1.56778E+12,25,44,9.67E-06,0,0,57,6,2,0,1,1,1,0,1,Tag0,unknown
1.56778E+12,25,-341,-7.49E-05,0,0,57,85,7,3,6,3,6,1,1,Tag0,unknown
1.56778E+12,0,13,2.86E-06,0,0,49,377357,16752698,32293,10416,8411,7414,7028,6872,Tag0,unknown
1.56778E+12,0,44,9.67E-06,0,0,49,201751,16766601,6266,1321,4521,9960,3421,1823,Tag0,unknown
1.56778E+12,0,-264,-5.80E-05,0,0,40,75392,7087,9759,5258,3896,3029,4086,2784,Tag0,unknown
1.56778E+12,0,21,4.61E-06,30,35,40,523204,262315,16746020,17204,16748694,13382,16748465,2853,Tag0,unknown
1.56778E+12,0,122,2.68E-05,48,27,42,16764275,18547,180,2868,2017,3763,3866,1058,Tag0,unknown
1.56778E+12,0,22,4.83E-06,70,37,42,96664,22385,22126,6799,9280,15178,7403,4845,Tag0,unknown
1.56778E+12,0,71,1.56E-05,90,44,42,89178,16756104,16748915,13040,27056,18678,15478,15170,Tag0,unknown
1.56778E+12,0,-11,-2.42E-06,100,57,42,31297,19922,11914,22890,10723,20739,5570,6295,Tag0,unknown
1.56778E+12,0,61,1.34E-05,100,67,40,98831,14867,2121,5929,4875,1159,2760,1565,Tag0,unknown
1.56778E+12,0,51,1.12E-05,94,66,40,26456,17917,14690,9693,16833,11571,17061,6332,Tag0,unknown
1.56778E+12,0,38,8.35E-06,69,60,71,173333,221955,22598,16757613,28134,15103,16750599,6809,Tag0,unknown
1.56778E+12,0,12,2.64E-06,63,50,39,21853,8035,988,3396,7760,3113,6347,1120,Tag0,unknown
1.56778E+12,0,-128,-2.81E-05,84,41,39,83866,19000,1505,3328,7503,6168,2137,1561,Tag0,unknown
1.56778E+12,0,87,1.91E-05,75,30,42,74589,35497,7594,17212,23793,18226,20296,8239,Tag0,unknown
1.56778E+12,0,-327,-7.19E-05,80,43,42,223056,26031,12001,17947,1081,3722,5975,2226,Tag0,unknown
1.56778E+12,0,45,9.89E-06,77,48,38,16750384,8366,2024,6594,6846,3564,5289,1207,Tag0,unknown
1.56778E+12,0,73,1.60E-05,83,63,38,16770007,10989,15530,18778,11344,22479,13262,11027,Tag0,unknown
1.56778E+12,0,-259,-5.69E-05,97,78,44,20160,12551,10173,16946,6758,17201,23772,9981,Tag0,unknown
1.56778E+12,0,64,1.41E-05,97,67,44,16760187,25011,6947,5964,6135,3060,7279,2333,Tag0,unknown
1.56778E+12,0,56,1.23E-05,100,57,44,8523,12011,1082,6690,14840,24159,12985,6615,Tag0,unknown
1.56778E+12,0,-263,-5.78E-05,87,48,44,247422,55842,11375,26919,25609,23353,22504,18588,Tag0,unknown
1.56778E+12,0,32,7.03E-06,69,44,44,29128,16751368,6539,16755062,25282,21017,23235,17055,Tag0,unknown
1.56778E+12,0,125,2.75E-05,69,43,44,696518,16763585,13905,10609,18603,9472,11148,3347,Tag0,unknown
1.56778E+12,0,-138,-3.03E-05,67,48,38,28870,13363,9321,4280,19077,24307,28468,15659,Tag0,unknown
1.56778E+12,0,-273,-6.00E-05,67,51,41,114476,22592,3014,6596,1255,5197,9257,3947,Tag0,unknown
1.56778E+12,0,56,1.23E-05,56,41,44,1006490,229331,16773559,9014,21884,29061,16745144,12726,Tag0,unknown
1.56778E+12,0,-282,-6.20E-05,64,47,44,162586,7805,3106,4509,2278,4060,5132,4043,Tag0,unknown
1.56778E+12,0,50,1.10E-05,63,53,44,19348,4292,21614,9576,16746888,25840,13491,10557,Tag0,unknown
1.56778E+12,0,-262,-5.76E-05,75,57,44,11231,14922,11003,22379,16405,24373,29961,9202,Tag0,unknown
1.56778E+12,0,33,7.25E-06,100,57,44,160137,3574,1537,4438,13054,11315,6403,1008,Tag0,unknown
1.56778E+12,0,374,8.22E-05,100,48,44,5325,21913,9810,4144,16124,16751626,18895,10634,Tag0,unknown
1.56778E+12,0,102,2.24E-05,100,50,40,16760967,4421,6476,3038,2914,9594,4739,801,Tag0,unknown
1.56778E+12,0,57,1.25E-05,100,43,55,11301,21807,4126,10251,14047,17247,21692,7502,Tag0,unknown
1.56778E+12,0,-346,-7.60E-05,97,34,55,23684,16763484,872,3749,3179,8164,7050,1699,Tag0,unknown
1.56778E+12,0,-258,-5.67E-05,75,34,46,88100,16751328,6110,3581,5057,6304,4040,2108,Tag0,unknown
1.56778E+12,0,51,1.12E-05,63,38,37,16776577,10670,11221,10781,5405,9904,11953,7158,Tag0,unknown
1.56778E+12,0,55,1.21E-05,44,34,37,222110,40454,12132,10416,27819,12116,17161,9646,Tag0,unknown
1.56778E+12,0,49,1.08E-05,60,48,37,96849,15617,27490,2926,32119,28179,23862,14473,Tag0,unknown
1.56778E+12,0,-301,-6.61E-05,81,54,46,16750004,6843,6676,8196,13644,19431,16747,6827,Tag0,unknown
1.56778E+12,0,57,1.25E-05,87,56,60,26121,3954,8597,4017,2572,7419,6132,1762,Tag0,unknown
1.56778E+12,0,-313,-6.88E-05,90,57,60,841643,16752658,6617,4936,6709,6373,11468,11889,Tag0,unknown
1.56778E+12,0,-325,-7.14E-05,91,57,43,16749987,14047,11481,6577,16985,24957,32065,4449,Tag0,unknown
1.56778E+12,0,16,3.52E-06,69,53,46,278649,168065,16749160,28371,20766,16753776,82800,31568,Tag0,unknown
1.56778E+12,0,3,6.59E-07,51,27,46,353001,16759009,16777103,4173,11177,3577,6487,2477,Tag0,unknown
1.56778E+12,0,40,8.79E-06,56,21,46,75035,18288,1748,1061,5678,4304,5453,1795,Tag0,unknown
1.56778E+12,0,-268,-5.89E-05,50,20,46,666,30325,9452,11932,18454,17059,22981,4956,Tag0,unknown
1.56778E+12,0,6,1.32E-06,63,26,41,3745,13740,2757,13645,5860,14414,12633,9897,Tag0,unknown
1.56778E+12,0,-54,-1.19E-05,83,41,41,231118,16745627,7265,20749,24987,30368,26225,20573,Tag0,unknown
1.56778E+12,0,106,2.33E-05,69,61,43,75212,101209,59490,30312,24257,19141,26678,9506,Tag0,unknown
1.56778E+12,0,-268,-5.89E-05,57,63,43,1527398,153998,16760095,29590,18766,28449,83334,8282,Tag0,unknown
1.56778E+12,0,4,8.79E-07,63,61,43,4002,14782,13982,15161,25289,16746958,23125,9623,Tag0,unknown
1.56778E+12,0,83,1.82E-05,50,37,43,313552,108867,18054,25704,12017,23749,14944,11372,Tag0,unknown
1.56778E+12,0,-344,-7.56E-05,56,38,45,84450,262861,70496,135173,88434,36344,16754524,10803,Tag0,unknown
1.56778E+12,51,1828,4.02E-04,56,38,45,193894,107410,3336,8694,16754456,18366,11983,29414,Tag0,unknown
1.56778E+12,51,-92,-2.02E-05,56,38,45,903117,135482,30229,16761448,94480,97275,70963,16751048,Tag0,unknown
1.56778E+12,51,1791,3.94E-04,56,38,45,1719356,266002,146562,62598,890523,227286,126706,208486,Tag0,unknown
timestampMs,poorSignal,eegRawValue,eegRawValueVolts,attention,meditation,blinkStrength,delta,theta,alphaLow,alphaHigh,betaLow,betaHigh,gammaLow,gammaMid,tagEvent,location
1.56778E+12,25,49,1.08E-05,0,0,93,43,3,0,1,0,1,1,1,Tag0,unknown
1.56778E+12,25,18,3.96E-06,0,0,93,43921,82955,10634,14420,8391,6458,3443,7560,Tag0,unknown
1.56778E+12,0,-353,-7.76E-05,0,0,40,16774414,16744606,14323,7198,12570,5090,1999,1671,Tag0,unknown
1.56778E+12,0,0,0,0,0,36,1108405,132930,24971,25292,14737,18058,14068,14105,Tag0,unknown
1.56778E+12,0,25,5.49E-06,0,0,36,16769040,19602,8479,1760,891,4455,4338,3092,Tag0,unknown
1.56778E+12,0,-117,-2.57E-05,54,30,36,286565,31407,12294,6693,22048,12711,16065,6806,Tag0,unknown
1.56778E+12,0,99,2.18E-05,37,54,36,49208,16760973,26688,11786,6317,4664,6027,5445,Tag0,unknown
1.56778E+12,0,121,2.66E-05,43,53,40,16757401,16746018,4365,18413,17505,11298,16756628,12458,Tag0,unknown
1.56778E+12,0,76,1.67E-05,44,77,40,640684,20757,80967,12627,14049,14692,18703,15857,Tag0,unknown
1.56778E+12,0,41,9.01E-06,47,66,40,268300,24884,1309,2623,3633,8796,9005,6705,Tag0,unknown
1.56778E+12,0,39,8.57E-06,88,41,59,16754698,19713,21765,15035,22580,74587,67269,18838,Tag0,unknown
1.56778E+12,0,322,7.08E-05,66,43,59,717204,16774923,17125,12769,6779,7246,4066,5099,Tag0,unknown
1.56778E+12,0,90,1.98E-05,80,10,46,62763,9936,3006,2176,8962,10563,11668,1720,Tag0,unknown
1.56778E+12,0,11,2.42E-06,61,35,40,21119,16752695,13768,22078,6086,16006,29521,13827,Tag0,unknown
1.56778E+12,0,29,6.37E-06,23,53,40,98990,65762,75969,25510,15813,12883,13969,9432,Tag0,unknown
1.56778E+12,0,58,1.27E-05,40,77,46,24694,4341,24959,27505,10985,14673,29436,13256,Tag0,unknown
1.56778E+12,0,91,2.00E-05,16,94,46,239817,16744332,12318,15027,1023,6651,4558,2960,Tag0,unknown
1.56778E+12,0,-329,-7.23E-05,17,70,46,21373,16772163,4141,6907,17843,16339,10711,4897,Tag0,unknown
1.56778E+12,0,39,8.57E-06,30,56,46,32544,15249,808,7852,3700,4341,6789,1814,Tag0,unknown
1.56778E+12,0,-124,-2.72E-05,16,48,46,114196,12352,5721,12488,3464,3148,4167,1078,Tag0,unknown
1.56778E+12,0,56,1.23E-05,24,48,46,69942,12233,7667,5657,3035,5406,5336,911,Tag0,unknown
1.56778E+12,0,81,1.78E-05,13,47,43,552104,100067,6375,9107,6740,18358,19853,7826,Tag0,unknown
1.56778E+12,0,101,2.22E-05,1,38,43,233069,111042,32420,6198,12204,7470,5740,3462,Tag0,unknown
1.56778E+12,0,81,1.78E-05,8,24,42,123264,16759548,13884,21968,24221,12998,31753,6346,Tag0,unknown
1.56778E+12,0,33,7.25E-06,7,8,55,16744696,13812,1870,1860,4065,2487,3102,3006,Tag0,unknown
1.56778E+12,0,-102,-2.24E-05,8,13,45,370186,16769121,5475,3613,6538,5139,4823,1282,Tag0,unknown
1.56778E+12,0,28,6.15E-06,26,23,45,16759905,14457,6776,5644,10773,4741,2154,988,Tag0,unknown
1.56778E+12,0,59,1.30E-05,34,21,45,16748182,16747815,13502,5543,2950,15214,7990,3724,Tag0,unknown
1.56778E+12,0,49,1.08E-05,27,23,46,16761931,16748642,2081,5570,3932,3461,4278,806,Tag0,unknown
1.56778E+12,0,-71,-1.56E-05,54,35,46,20585,16958,6089,7591,3831,25576,11894,3152,Tag0,unknown
1.56778E+12,0,-39,-8.57E-06,54,35,47,56985,16767795,11741,21862,23955,14212,9961,5958,Tag0,unknown
1.56778E+12,0,-270,-5.93E-05,35,29,47,200689,16761104,7148,6578,1783,3029,1183,1960,Tag0,unknown
1.56778E+12,0,48,1.05E-05,34,40,47,1517891,137532,16765494,18093,16755282,14391,11715,7506,Tag0,unknown
1.56778E+12,0,5,1.10E-06,27,29,46,23863,21049,8819,4170,16748322,18491,21738,8756,Tag0,unknown
1.56778E+12,0,42,9.23E-06,40,26,55,71619,5788,261,3031,1618,4374,3340,822,Tag0,unknown
1.56778E+12,0,61,1.34E-05,53,34,55,68682,8314,6174,409,5994,2065,2632,594,Tag0,unknown
1.56778E+12,0,26,5.71E-06,60,34,55,16752934,22416,4756,7497,3782,4909,17865,4031,Tag0,unknown
1.56778E+12,0,-124,-2.72E-05,48,41,47,24144,16753808,8772,10599,16280,13148,11700,7202,Tag0,unknown
1.56778E+12,0,74,1.63E-05,34,38,47,305582,31631,5006,4950,2462,5138,3174,803,Tag0,unknown
1.56778E+12,0,89,1.96E-05,40,30,40,12890,16759800,9380,10477,8693,21379,13764,4672,Tag0,unknown
1.56778E+12,0,74,1.63E-05,60,24,50,439791,16749525,12789,9906,18348,16753892,16746604,12510,Tag0,unknown
1.56778E+12,0,44,9.67E-06,43,20,46,158737,86012,12953,7795,13867,5233,10706,1196,Tag0,unknown
1.56778E+12,0,-259,-5.69E-05,30,7,45,1047878,439771,30329,19351,10869,25079,19026,15316,Tag0,unknown
1.56778E+12,0,-109,-2.40E-05,30,10,45,263517,5085,3379,1456,6607,2728,2675,767,Tag0,unknown
1.56778E+12,0,89,1.96E-05,17,16,40,369611,27409,3361,13893,10630,9945,5946,3171,Tag0,unknown
1.56778E+12,0,49,1.08E-05,30,13,46,62555,22486,4425,1075,5608,3839,6925,1093,Tag0,unknown
1.56778E+12,0,2,4.39E-07,37,47,46,100104,16765153,16755694,21853,15653,9080,8569,5182,Tag0,unknown
1.56778E+12,0,84,1.85E-05,41,48,46,31564,29685,14953,7375,9274,20709,9468,2144,Tag0,unknown
1.56778E+12,0,10,2.20E-06,50,53,46,88293,12354,5196,16964,8698,16912,9181,4640,Tag0,unknown
1.56778E+12,0,61,1.34E-05,54,70,46,22241,9100,12637,3388,11857,5553,16748022,6066,Tag0,unknown
1.56778E+12,0,-140,-3.08E-05,60,64,46,59266,72204,16761032,23333,32015,15538,4578,1482,Tag0,unknown
1.56778E+12,0,32,7.03E-06,69,50,39,162575,23269,6420,2960,11053,16745430,8657,3032,Tag0,unknown
1.56778E+12,0,53,1.16E-05,69,50,39,162575,23269,6420,2960,11053,16745430,8657,3032,Tag0,unknown
1.56778E+12,0,73,1.60E-05,61,26,39,25410,16762402,4691,2839,11717,13358,12671,15344,Tag0,unknown
1.56778E+12,0,18,3.96E-06,61,23,39,1183055,126477,16746208,16753409,13595,24888,24862,3971,Tag0,unknown
1.56778E+12,0,-265,-5.82E-05,50,41,42,79546,28036,7862,4910,2306,3391,4732,2506,Tag0,unknown
1.56778E+12,0,49,1.08E-05,41,37,63,39064,16758336,24795,11203,12756,21245,29344,7440,Tag0,unknown
timestampMs,poorSignal,eegRawValue,eegRawValueVolts,attention,meditation,blinkStrength,delta,theta,alphaLow,alphaHigh,betaLow,betaHigh,gammaLow,gammaMid,tagEvent,location
1.56779E+12,25,45,9.89E-06,0,0,0,7,3,1,0,3,3,1,1,Tag0,unknown
1.56779E+12,25,44,9.67E-06,0,0,0,135393,16764457,9543,14607,4508,10320,10680,8041,Tag0,unknown
1.56779E+12,0,53,1.16E-05,0,0,0,97098,143070,4641,13932,3974,13101,14203,5343,Tag0,unknown
1.56779E+12,0,40,8.79E-06,0,0,0,52714,30286,7710,1712,5132,3282,4350,1212,Tag0,unknown
1.56779E+12,0,34,7.47E-06,0,0,0,102718,16548,4372,1804,1583,4102,6382,2798,Tag0,unknown
1.56779E+12,0,-269,-5.91E-05,51,51,41,139998,33981,9878,16746282,14350,27794,14448,9927,Tag0,unknown
1.56779E+12,0,-75,-1.65E-05,75,74,33,86388,16772368,18642,24810,15691,29733,12462,4398,Tag0,unknown
1.56779E+12,0,64,1.41E-05,75,74,33,86388,16772368,18642,24810,15691,29733,12462,4398,Tag0,unknown
1.56779E+12,0,-264,-5.80E-05,84,94,33,19822,16333,1409,11647,6290,15721,16746938,7716,Tag0,unknown
1.56779E+12,0,50,1.10E-05,75,96,33,624602,44400,10537,16756898,30399,29914,16759055,11703,Tag0,unknown
1.56779E+12,0,2,4.39E-07,64,93,33,153760,16753107,11128,14077,5584,19605,20012,21658,Tag0,unknown
1.56779E+12,0,99,2.18E-05,67,80,46,82297,132617,16822,2174,4086,12742,7618,2408,Tag0,unknown
1.56779E+12,0,69,1.52E-05,61,70,46,84801,12081,2708,2485,4889,6028,4688,2412,Tag0,unknown
1.56779E+12,0,44,9.67E-06,81,61,46,41823,22802,7986,4401,13516,20819,19479,16747581,Tag0,unknown
1.56779E+12,0,33,7.25E-06,70,63,45,125899,27477,1640,15637,10535,7454,12566,14330,Tag0,unknown
1.56779E+12,0,34,7.47E-06,97,88,45,32248,16744605,6839,19598,16518,25055,15400,5889,Tag0,unknown
1.56779E+12,0,10,2.20E-06,96,100,45,16770898,19363,21984,20960,11874,23923,16748765,7531,Tag0,unknown
1.56779E+12,0,329,7.23E-05,78,100,45,75100,39979,16279,16774073,16774854,16750241,29274,4547,Tag0,unknown
1.56779E+12,0,109,2.40E-05,80,100,104,346094,21508,4033,14588,2759,7189,5062,4181,Tag0,unknown
1.56779E+12,0,40,8.79E-06,87,94,104,20829,23400,11236,7052,10118,16751096,22784,11686,Tag0,unknown
1.56779E+12,0,24,5.27E-06,91,78,104,15809,14048,4205,7893,8427,17166,15650,21104,Tag0,unknown
1.56779E+12,0,40,8.79E-06,83,87,36,15979,84937,69999,3237,7261,24978,14484,11627,Tag0,unknown
1.56779E+12,0,35,7.69E-06,91,77,36,32289,16768363,26319,11925,15939,16746171,22978,15335,Tag0,unknown
1.56779E+12,0,53,1.16E-05,84,75,36,21056,22083,3693,7241,7333,18569,16751027,5077,Tag0,unknown
1.56779E+12,0,72,1.58E-05,54,50,36,84419,16757730,1900,2775,4931,4291,5345,1950,Tag0,unknown
1.56779E+12,0,-95,-2.09E-05,56,30,36,508818,79137,14233,9625,11618,19758,26707,12178,Tag0,unknown
1.56779E+12,0,74,1.63E-05,61,37,36,2755,9207,3435,10372,6944,11912,22774,8272,Tag0,unknown
1.56779E+12,0,18,3.96E-06,67,37,36,17699,14440,8001,4500,8913,30019,18041,7923,Tag0,unknown
1.56779E+12,0,48,1.05E-05,96,69,36,13155,8582,12762,4778,9437,17038,15170,3250,Tag0,unknown
1.56779E+12,0,-100,-2.20E-05,94,91,36,108882,8352,9890,4570,9255,4296,3419,7224,Tag0,unknown
1.56779E+12,0,43,9.45E-06,90,80,36,22974,16760841,4073,17490,11729,28253,26547,10551,Tag0,unknown
1.56779E+12,0,106,2.33E-05,75,90,36,12867,13752,18893,6604,29162,13713,20072,5329,Tag0,unknown
1.56779E+12,0,26,5.71E-06,51,56,39,220725,132185,3594,8022,13894,19390,7424,6228,Tag0,unknown
1.56779E+12,0,2,4.39E-07,64,57,39,25155,6901,32048,7946,5042,23629,16752521,5948,Tag0,unknown
1.56779E+12,0,-123,-2.70E-05,80,53,43,7161,13970,1321,10623,12912,30481,18645,6268,Tag0,unknown
1.56779E+12,0,83,1.82E-05,56,30,43,698265,410348,16746283,23341,16450,16746284,15798,8337,Tag0,unknown
1.56779E+12,0,27,5.93E-06,66,66,43,16027,10361,17067,8611,11667,10431,21161,20999,Tag0,unknown
1.56779E+12,0,34,7.47E-06,61,63,43,16766030,11021,13552,8822,2342,13940,20253,19691,Tag0,unknown
1.56779E+12,0,76,1.67E-05,54,48,43,364397,32365,3117,2508,15875,27398,16761402,14872,Tag0,unknown
1.56779E+12,0,18,3.96E-06,57,48,43,395174,254941,16749626,9187,10473,16750010,30244,25379,Tag0,unknown
1.56779E+12,51,7,1.54E-06,57,48,43,740438,20886,1889,1289,2498,8585,5791,8017,Tag0,unknown
1.56779E+12,51,88,1.93E-05,57,48,43,640408,38127,5564,73683,16776490,16763650,26286,4216,Tag0,unknown
1.56779E+12,26,-2070,-4.55E-04,57,48,43,904540,39307,8798,16774589,186486,61364,16772188,16765057,Tag0,unknown
1.56779E+12,51,-2107,-4.63E-04,57,48,43,586788,1097951,61533,292562,282693,38300,485730,16776160,Tag0,unknown
1.56779E+12,51,-2121,-4.66E-04,57,48,43,1382637,16772569,166260,37988,125442,417259,137815,357967,Tag0,unknown
1.56779E+12,51,-466,-1.02E-04,57,48,43,881968,393141,58083,16774449,275669,269908,422854,218958,Tag0,unknown
1.56779E+12,51,-2048,-4.50E-04,57,48,43,1169844,1112478,214437,985331,1892638,640402,811268,1273529,Tag0,unknown
1.56779E+12,51,-1978,-4.35E-04,57,48,43,1035462,384851,134147,168261,266482,46101,149199,82029,Tag0,unknown
1.56779E+12,51,-2048,-4.50E-04,57,48,43,1452746,194945,49742,16762936,352604,172330,240516,98457,Tag0,unknown
1.56779E+12,51,-1605,-3.53E-04,0,0,43,634281,136234,28656,90016,216450,185380,50086,48486,Tag0,unknown
1.56779E+12,51,-2048,-4.50E-04,0,0,43,457955,157473,83641,156239,204482,252090,49425,111998,Tag0,unknown
1.56779E+12,51,1377,3.03E-04,0,0,43,1824603,124550,170443,548899,180260,111309,62152,79120,Tag0,unknown
1.56779E+12,51,-1889,-4.15E-04,0,0,43,426121,380699,218152,110941,406443,193622,312399,121946,Tag0,unknown
1.56779E+12,51,-1960,-4.31E-04,0,0,43,316214,359403,144827,81823,352305,230321,332140,394155,Tag0,unknown
1.56779E+12,51,-1675,-3.68E-04,0,0,43,1492767,1164727,290878,666328,709958,1850899,559284,643315,Tag0,unknown
1.56779E+12,51,-477,-1.05E-04,0,0,43,582818,16758257,11952,19685,75047,16760997,16760825,25244,Tag0,unknown
1.56779E+12,51,-2047,-4.50E-04,0,0,43,738839,40276,220178,54622,154636,326074,115442,194109,Tag0,unknown
1.56779E+12,51,-2041,-4.48E-04,0,0,43,1815759,33669,16761861,24581,379674,226023,139472,102994,Tag0,unknown
1.56779E+12,51,-2048,-4.50E-04,0,0,43,2418813,283648,84444,163162,318565,293541,45275,114049,Tag0,unknown
timestampMs,poorSignal,eegRawValue,eegRawValueVolts,attention,meditation,blinkStrength,delta,theta,alphaLow,alphaHigh,betaLow,betaHigh,gammaLow,gammaMid,tagEvent,location
1.56779E+12,25,24,5.27E-06,0,0,88,42,3,2,1,2,1,1,0,Tag0,unknown
1.56779E+12,0,6,1.32E-06,0,0,88,125342,10763,718,2354,3946,1729,1430,1829,Tag0,unknown
1.56779E+12,0,-278,-6.11E-05,0,0,88,115916,59940,19598,9751,14414,16227,15833,11725,Tag0,unknown
1.56779E+12,0,44,9.67E-06,0,0,88,953223,149384,21213,21785,5898,16744509,16746407,16747242,Tag0,unknown
1.56779E+12,0,10,2.20E-06,53,30,88,16763959,16821,3211,6146,14747,20679,14495,4615,Tag0,unknown
1.56779E+12,0,17,3.74E-06,48,54,45,47794,84858,16674,16750011,13848,19580,27240,18665,Tag0,unknown
1.56779E+12,0,54,1.19E-05,50,78,40,65434,3410,3411,1720,2386,2404,4983,1532,Tag0,unknown
1.56779E+12,0,40,8.79E-06,47,77,40,16759065,10462,1977,2418,2136,2477,11594,814,Tag0,unknown
1.56779E+12,0,76,1.67E-05,35,81,40,188529,97644,10465,26287,13684,16747376,18609,3933,Tag0,unknown
1.56779E+12,0,38,8.35E-06,47,81,40,16757583,19782,20054,16312,15947,21050,20394,3139,Tag0,unknown
1.56779E+12,0,35,7.69E-06,48,78,40,13924,27480,20815,7553,6153,17182,21632,10404,Tag0,unknown
1.56779E+12,0,-42,-9.23E-06,60,84,35,16764948,21314,10607,6695,9872,18905,22524,9884,Tag0,unknown
1.56779E+12,0,115,2.53E-05,44,74,35,237751,80226,8421,9313,4650,5529,5082,2916,Tag0,unknown
1.56779E+12,0,3,6.59E-07,20,30,35,771437,1313235,21660,16765575,28671,31813,21983,16490,Tag0,unknown
1.56779E+12,0,-265,-5.82E-05,8,10,35,915938,186717,12775,16747558,13882,23174,16749239,16782,Tag0,unknown
1.56779E+12,0,-126,-2.77E-05,7,3,39,626104,16748596,4286,6266,10486,14279,9337,3764,Tag0,unknown
1.56779E+12,0,73,1.60E-05,23,17,39,270859,26201,2073,3751,2049,7119,10369,2449,Tag0,unknown
1.56779E+12,0,59,1.30E-05,47,37,39,1854521,98942,12059,23752,6765,16765266,16770822,28701,Tag0,unknown
1.56779E+12,0,9,1.98E-06,50,38,46,73352,70926,18554,2511,16752697,9478,31006,16124,Tag0,unknown
1.56779E+12,0,-261,-5.73E-05,38,61,46,366076,57823,16775990,47107,16750998,27701,16755323,20339,Tag0,unknown
1.56779E+12,0,89,1.96E-05,43,70,46,386053,16755737,18094,9612,4565,28395,16759637,18394,Tag0,unknown
1.56779E+12,0,103,2.26E-05,40,91,46,73038,16752496,16752107,13538,17536,17291,16769509,13773,Tag0,unknown
1.56779E+12,0,72,1.58E-05,47,97,46,1418220,91086,16751731,7952,11327,31081,16773531,16757443,Tag0,unknown
1.56779E+12,0,-126,-2.77E-05,40,64,46,1108521,459477,32267,22782,29789,23902,16769414,16767546,Tag0,unknown
1.56779E+12,0,48,1.05E-05,30,64,46,272955,73484,23275,7441,3571,16218,8180,13899,Tag0,unknown
1.56779E+12,0,115,2.53E-05,23,54,46,1856211,349246,16769058,33711,16746161,16754060,31550,16754837,Tag0,unknown
1.56779E+12,0,65,1.43E-05,24,64,46,223460,10236,7674,5156,3950,5918,6188,3639,Tag0,unknown
1.56779E+12,0,54,1.19E-05,47,69,46,1038740,54767,14713,10325,17394,16769799,95698,16762371,Tag0,unknown
1.56779E+12,0,50,1.10E-05,37,74,46,950237,87917,16749471,10679,8160,8311,10581,5793,Tag0,unknown
1.56779E+12,0,81,1.78E-05,56,60,46,67395,12450,1285,3081,4585,11233,5307,3944,Tag0,unknown
1.56779E+12,0,100,2.20E-05,61,48,40,75075,14686,3583,3331,2392,8480,10916,5093,Tag0,unknown
1.56779E+12,0,113,2.48E-05,48,48,40,2559343,437825,16763623,18434,12930,16765598,16116,28508,Tag0,unknown
1.56779E+12,0,-86,-1.89E-05,56,53,40,900932,139397,36814,12439,12862,16748794,16755310,16744729,Tag0,unknown
1.56779E+12,0,-331,-7.27E-05,41,41,40,1191992,420022,27941,4956,23530,16771764,76763,5184,Tag0,unknown
1.56779E+12,0,75,1.65E-05,35,24,40,185502,101374,11825,14032,22468,16754169,66235,8148,Tag0,unknown
1.56779E+12,0,19,4.17E-06,47,41,36,1179989,96832,16752073,20609,18638,16760819,29559,26842,Tag0,unknown
1.56779E+12,0,-281,-6.17E-05,40,40,36,1749565,87023,16747147,19582,2522,9479,13858,11669,Tag0,unknown
1.56779E+12,0,8,1.76E-06,37,66,36,2193727,135105,16763503,15450,24590,19383,68268,16746660,Tag0,unknown
1.56779E+12,0,33,7.25E-06,26,69,36,650099,441968,16761403,24177,16759990,16763100,16760928,9504,Tag0,unknown
1.56779E+12,0,56,1.23E-05,17,41,38,16774458,67840,2046,2346,3784,8588,18603,4506,Tag0,unknown
1.56779E+12,0,-327,-7.19E-05,8,8,61,1372662,324980,1296,9353,5336,8535,12348,4446,Tag0,unknown
1.56779E+12,0,-95,-2.09E-05,1,16,61,983181,16761427,16748465,6061,10528,4060,9918,3907,Tag0,unknown
1.56779E+12,0,38,8.35E-06,1,26,41,1077176,711310,83135,16748773,13918,16744921,67724,16747320,Tag0,unknown
1.56779E+12,0,-124,-2.72E-05,1,54,41,1831047,735811,166671,16760630,66550,77697,32935,9412,Tag0,unknown
1.56779E+12,0,91,2.00E-05,4,88,40,1827135,349670,53515,87419,16758930,66339,39480,16750811,Tag0,unknown
1.56779E+12,0,1,2.20E-07,10,84,44,506857,75555,16744997,11284,10846,9351,10163,15616,Tag0,unknown
1.56779E+12,0,42,9.23E-06,10,90,40,657889,135086,18015,16207,9003,6656,19713,6881,Tag0,unknown
1.56779E+12,0,90,1.98E-05,16,97,40,1583083,16746659,19357,16027,6906,11434,15230,9053,Tag0,unknown
1.56779E+12,0,-373,-8.20E-05,7,83,40,288002,16762681,5297,1130,1568,2376,2495,1406,Tag0,unknown
1.56779E+12,0,34,7.47E-06,4,78,36,640020,98288,16764245,1126,14685,14461,16764424,23226,Tag0,unknown
1.56779E+12,0,-265,-5.82E-05,11,93,40,420156,16766664,68030,31637,9811,12117,15570,10505,Tag0,unknown
1.56779E+12,0,-257,-5.65E-05,7,60,43,1102105,208406,530,7680,8167,22871,22148,3570,Tag0,unknown
1.56779E+12,0,48,1.05E-05,8,53,43,347230,54613,6371,6352,4565,6532,27031,4780,Tag0,unknown
1.56779E+12,0,-810,-1.78E-04,8,48,43,955476,47338,22712,5953,6788,9766,20024,3943,Tag0,unknown
1.56779E+12,25,36,7.91E-06,8,48,43,2294466,1108749,73392,142226,412116,406546,180448,16765786,Tag0,unknown
1.56779E+12,51,-599,-1.32E-04,8,48,43,1856371,16454,16752497,16761400,52412,90857,36102,16748404,Tag0,unknown
1.56779E+12,51,-149,-3.27E-05,8,48,43,383902,134666,43899,16767107,35921,16768494,16767022,32357,Tag0,unknown
1.56779E+12,51,-296,-6.50E-05,8,48,43,669975,217078,16761182,114411,28322,37021,73880,16754,Tag0,unknown
1.56779E+12,26,-29,-6.37E-06,8,48,43,189394,76367,26868,10793,143797,16757804,90531,8763,Tag0,unknown
timestampMs,poorSignal,eegRawValue,eegRawValueVolts,attention,meditation,blinkStrength,delta,theta,alphaLow,alphaHigh,betaLow,betaHigh,gammaLow,gammaMid,tagEvent,location
1.56779E+12,25,43,9.45E-06,0,0,42,3,1,0,2,0,0,1,1,Tag0,unknown
1.56779E+12,25,43,9.45E-06,0,0,42,29,1,1,0,1,1,1,0,Tag0,unknown
1.56779E+12,25,-554,-1.22E-04,0,0,39,615036,167440,20639,5056,16745868,19343,14873,17508,Tag0,unknown
1.56779E+12,0,59,1.30E-05,0,0,39,690303,75553,3975,3649,7820,6151,5049,4194,Tag0,unknown
1.56779E+12,0,-278,-6.11E-05,0,0,40,102352,26631,1891,8745,28520,17297,26560,11729,Tag0,unknown
1.56779E+12,0,27,5.93E-06,0,0,40,147807,16760714,25969,13605,10299,31289,16761314,6011,Tag0,unknown
1.56779E+12,0,43,9.45E-06,53,53,40,194375,16533,19186,19995,25372,16763893,29615,7379,Tag0,unknown
1.56779E+12,0,57,1.25E-05,53,77,38,245479,10298,14476,2267,3992,5650,13177,732,Tag0,unknown
1.56779E+12,0,121,2.66E-05,44,78,38,54854,16761486,1805,10848,8624,4706,8064,2080,Tag0,unknown
1.56779E+12,0,-360,-7.91E-05,63,81,38,10340,15336,8880,10145,18484,16762017,19486,11559,Tag0,unknown
1.56779E+12,0,27,5.93E-06,44,69,45,59081,72329,10869,6282,3792,9872,10456,1765,Tag0,unknown
1.56779E+12,0,3,6.59E-07,57,51,45,16749348,17526,6771,9823,16021,16744471,29072,10125,Tag0,unknown
1.56779E+12,0,65,1.43E-05,53,53,41,727479,304623,16773518,28541,15154,20214,16756451,16198,Tag0,unknown
1.56779E+12,0,72,1.58E-05,34,48,41,2106977,353555,69212,3586,16746239,16773206,37801,19607,Tag0,unknown
1.56779E+12,0,26,5.71E-06,29,50,36,1907812,546553,16748650,38329,24850,16758860,93064,16757061,Tag0,unknown
1.56779E+12,0,32,7.03E-06,14,54,36,471752,76025,29644,8807,4555,20791,16757778,17334,Tag0,unknown
1.56779E+12,0,-329,-7.23E-05,26,50,48,882508,251805,32597,21008,13719,16771681,16762800,16760465,Tag0,unknown
1.56779E+12,0,109,2.40E-05,27,64,38,23814,25215,8542,12431,12258,8617,28436,4076,Tag0,unknown
1.56779E+12,0,-124,-2.72E-05,21,44,44,784048,1101715,20639,16763497,11917,16746622,16751789,16771145,Tag0,unknown
1.56779E+12,0,69,1.52E-05,17,41,44,821984,220347,16747895,16766169,16744820,16754480,25188,7493,Tag0,unknown
1.56779E+12,0,-327,-7.19E-05,27,24,44,81200,21575,415,613,6204,10160,13043,2953,Tag0,unknown
1.56779E+12,0,91,2.00E-05,14,13,59,2424618,338519,5916,16770860,16751939,17919,16751987,9770,Tag0,unknown
1.56779E+12,0,76,1.67E-05,37,38,59,305207,16124,4251,4576,4702,9725,7169,3013,Tag0,unknown
1.56779E+12,0,21,4.61E-06,40,47,59,1510947,50874,77394,19442,26920,16753566,76801,18969,Tag0,unknown
1.56779E+12,0,114,2.50E-05,38,61,36,883881,161004,18677,13445,16751235,66048,16753230,16764680,Tag0,unknown
1.56779E+12,0,-281,-6.17E-05,40,61,36,241273,55152,20542,1474,3136,6907,10568,1777,Tag0,unknown
1.56779E+12,0,-8,-1.76E-06,26,60,36,830220,289724,16765026,32313,19152,29883,16772135,12394,Tag0,unknown
1.56779E+12,0,55,1.21E-05,23,47,57,1139252,322747,19941,16773668,31140,16774534,16751637,25417,Tag0,unknown
1.56779E+12,0,93,2.04E-05,17,61,38,421154,190306,35847,16750667,27215,85447,16755671,16750451,Tag0,unknown
1.56779E+12,0,13,2.86E-06,40,67,46,800033,17066,4859,6639,6384,17037,16325,4373,Tag0,unknown
1.56779E+12,0,101,2.22E-05,54,61,46,16751127,24513,4496,1629,5569,16178,5573,3057,Tag0,unknown
1.56779E+12,0,37,8.13E-06,40,61,44,1341840,705662,91280,16776656,16755817,21825,16759712,16755263,Tag0,unknown
1.56779E+12,0,9,1.98E-06,47,48,44,253908,77044,5052,14632,22221,16752927,30722,5290,Tag0,unknown
1.56779E+12,0,58,1.27E-05,29,57,44,1311471,16772515,21116,25854,7921,9233,32233,8480,Tag0,unknown
1.56779E+12,0,0,0,24,63,44,803995,62721,16261,20044,18188,16754704,28695,9071,Tag0,unknown
1.56779E+12,0,-313,-6.88E-05,34,50,44,659952,173799,10668,8441,12766,16397,10243,3291,Tag0,unknown
1.56779E+12,0,12,2.64E-06,13,41,44,2748944,999125,15842,16773458,14713,16756868,16760034,16747647,Tag0,unknown
1.56779E+12,0,42,9.23E-06,8,21,44,267779,106731,10199,12464,10568,8435,12526,5801,Tag0,unknown
1.56779E+12,0,-317,-6.97E-05,1,35,44,2812158,157571,67237,16746462,13821,21547,24402,30176,Tag0,unknown
1.56779E+12,0,5,1.10E-06,1,47,44,1239649,147216,12384,16808,8500,13901,12515,10798,Tag0,unknown
1.56779E+12,0,116,2.55E-05,8,56,40,1387550,395298,16749521,24182,5975,16762381,16751283,16751454,Tag0,unknown
1.56779E+12,0,-124,-2.72E-05,8,69,40,723306,452923,151394,16765022,10129,16747883,16767253,32598,Tag0,unknown
1.56779E+12,0,71,1.56E-05,1,35,40,2289216,984548,29404,14513,16756443,28567,33891,28222,Tag0,unknown
1.56779E+12,0,112,2.46E-05,1,43,39,1649390,300300,49351,26875,16751642,16754074,38789,20602,Tag0,unknown
1.56779E+12,0,-129,-2.83E-05,1,37,40,2675736,742621,29945,16750069,30813,22369,16777075,16751600,Tag0,unknown
1.56779E+12,0,-109,-2.40E-05,1,34,37,1227509,162898,16747995,19141,7750,16795,19540,8390,Tag0,unknown
1.56779E+12,0,-96,-2.11E-05,4,70,37,350550,16757285,16752980,12925,5591,15147,18471,24865,Tag0,unknown
1.56779E+12,0,7,1.54E-06,14,77,44,543446,16760902,17430,18539,6136,23907,16745841,4650,Tag0,unknown
1.56779E+12,0,57,1.25E-05,34,77,44,91564,16760706,3982,1973,12779,10945,16757038,4459,Tag0,unknown
1.56779E+12,0,0,0,30,78,36,37453,27288,9214,2189,1672,2930,4057,3311,Tag0,unknown
1.56779E+12,0,124,2.72E-05,21,63,38,859599,477843,36736,14887,6863,25554,16767203,16765224,Tag0,unknown
1.56779E+12,0,118,2.59E-05,20,50,43,1044460,16758170,6508,3238,4658,13489,13617,11157,Tag0,unknown
1.56779E+12,0,-338,-7.43E-05,11,54,43,353511,504153,16762257,16745980,29154,16751034,34383,16773541,Tag0,unknown
1.56779E+12,0,-264,-5.80E-05,14,56,39,1528945,213179,36709,11936,16754499,16749054,16760665,31177,Tag0,unknown
1.56779E+12,0,-342,-7.51E-05,21,66,39,1056071,194433,152207,10204,11043,16749929,16763911,19889,Tag0,unknown
1.56779E+12,0,264,5.80E-05,20,83,43,771928,58891,26469,16775321,4293,16756592,16749984,14454,Tag0,unknown
1.56779E+12,0,28,6.15E-06,26,96,41,362475,16773791,12520,17994,4066,12959,16539,11214,Tag0,unknown
1.56779E+12,0,17,3.74E-06,16,74,44,759374,984641,19099,16761354,22103,16756968,16759260,16745000,Tag0,unknown
1.56779E+12,0,70,1.54E-05,21,77,44,130509,30742,26680,2369,8567,8880,4849,2936,Tag0,unknown
timestampMs,poorSignal,eegRawValue,eegRawValueVolts,attention,meditation,blinkStrength,delta,theta,alphaLow,alphaHigh,betaLow,betaHigh,gammaLow,gammaMid,tagEvent,location
1.57E+12,0,16,3.52E-06,1,44,35,16755654,50578,16750189,5961,6317,10701,9342,3109,Tag0,unknown
1.57E+12,0,86,1.89E-05,1,40,35,161710,16747371,7661,7342,3266,6446,4093,1059,Tag0,unknown
1.57E+12,0,-118,-2.59E-05,1,16,55,461785,266212,14672,8642,32525,22416,12718,8423,Tag0,unknown
1.57E+12,0,119,2.61E-05,1,21,55,1750489,191182,16746621,16746934,12448,16386,13325,11087,Tag0,unknown
1.57E+12,0,98,2.15E-05,3,30,55,303844,16769812,16757322,17954,10295,18403,7740,10965,Tag0,unknown
1.57E+12,0,121,2.66E-05,8,41,55,432488,11447,13567,12156,14107,5495,4104,3071,Tag0,unknown
1.57E+12,0,-128,-2.81E-05,3,61,71,91740,14899,6960,717,1944,648,1874,881,Tag0,unknown
1.57E+12,0,2,4.39E-07,30,63,71,149914,16766462,3478,20757,8769,15446,15484,15497,Tag0,unknown
1.57E+12,0,82,1.80E-05,34,57,71,87673,16748823,31185,8327,26625,11794,6115,4885,Tag0,unknown
1.57E+12,0,71,1.56E-05,29,44,45,227117,92335,12241,16133,11076,11389,9096,1215,Tag0,unknown
1.57E+12,0,-265,-5.82E-05,29,24,37,152245,133972,620,9414,3351,3837,7886,5435,Tag0,unknown
1.57E+12,0,51,1.12E-05,8,34,37,973330,68208,16752202,13907,6003,5074,6161,2175,Tag0,unknown
1.57E+12,0,70,1.54E-05,16,24,37,649891,32667,7676,20735,13674,28417,16751891,1596,Tag0,unknown
1.57E+12,0,-283,-6.22E-05,43,24,37,26703,16744511,7840,12125,10403,16745294,14909,16758,Tag0,unknown
1.57E+12,0,23,5.05E-06,81,54,37,91933,5684,16754553,16748903,16744632,16753306,18737,19031,Tag0,unknown
1.57E+12,0,8,1.76E-06,100,48,37,21999,17455,10223,6838,15023,14590,30227,8498,Tag0,unknown
1.57E+12,0,44,9.67E-06,100,53,37,16763256,21920,11806,9083,18632,18954,20872,9345,Tag0,unknown
1.57E+12,0,100,2.20E-05,100,60,37,73601,3665,1705,6707,3874,10889,2780,4117,Tag0,unknown
1.57E+12,0,49,1.08E-05,91,38,37,238250,16775989,3579,5565,1524,5490,8151,5331,Tag0,unknown
1.57E+12,0,-262,-5.76E-05,96,35,37,16763450,17813,7563,8453,2924,32136,23651,12317,Tag0,unknown
1.57E+12,0,102,2.24E-05,64,44,55,68446,27572,22470,9397,3307,2216,8796,2449,Tag0,unknown
1.57E+12,0,55,1.21E-05,56,43,55,25694,14381,11000,5227,19473,16240,30835,11329,Tag0,unknown
1.57E+12,0,28,6.15E-06,75,63,55,20975,16133,15171,18807,8060,15906,18636,6614,Tag0,unknown
1.57E+12,0,40,8.79E-06,67,60,55,16283,22747,8335,4068,13905,17061,16187,8718,Tag0,unknown
1.57E+12,0,66,1.45E-05,100,41,55,8298,25698,3305,6494,7146,26737,15840,9340,Tag0,unknown
1.57E+12,0,85,1.87E-05,96,47,55,1702881,31864,20967,19558,14806,22250,16747681,4735,Tag0,unknown
1.57E+12,0,82,1.80E-05,87,37,55,16763805,22324,3706,9505,6937,4968,7593,1633,Tag0,unknown
1.57E+12,0,38,8.35E-06,60,48,58,72528,16757775,29071,4408,2422,4018,15411,1788,Tag0,unknown
1.57E+12,0,-72,-1.58E-05,51,66,42,31929,29189,16752048,19036,9798,30069,25113,24190,Tag0,unknown
1.57E+12,0,-232,-5.10E-05,29,50,62,2226922,239369,30228,8072,24691,18038,15096,14122,Tag0,unknown
1.57E+12,0,43,9.45E-06,27,53,62,459039,24148,11480,5253,6031,4876,3917,2391,Tag0,unknown
1.57E+12,0,-298,-6.55E-05,23,43,62,956089,93181,19395,12468,8324,5330,4000,8367,Tag0,unknown
1.57E+12,0,-258,-5.67E-05,1,27,39,801833,99133,7527,16744343,17154,11218,18714,2973,Tag0,unknown
1.57E+12,0,-289,-6.35E-05,17,37,39,701346,70721,19164,6248,14223,17686,6093,2756,Tag0,unknown
1.57E+12,0,38,8.35E-06,7,37,35,2344113,341590,161976,16751621,26421,25250,18358,10188,Tag0,unknown
1.57E+12,0,52,1.14E-05,21,37,55,259960,62698,31974,11722,7666,23721,29479,20914,Tag0,unknown
1.57E+12,0,81,1.78E-05,26,38,44,34371,19737,3372,2689,3178,2112,2461,2154,Tag0,unknown
1.57E+12,0,42,9.23E-06,24,29,56,1357935,53221,1450,18111,16187,26250,16754631,23071,Tag0,unknown
1.57E+12,0,-270,-5.93E-05,48,27,56,151498,75162,10174,16756898,20789,16760339,29089,28682,Tag0,unknown
1.57E+12,0,297,6.53E-05,44,26,56,151948,16759510,1466,13229,6256,6378,7809,7663,Tag0,unknown
1.57E+12,0,354,7.78E-05,48,21,56,992432,186512,26959,25971,68541,16749144,85482,19368,Tag0,unknown
1.57E+12,0,51,1.12E-05,54,38,46,24186,7996,4751,3497,3302,4666,6145,2184,Tag0,unknown
1.57E+12,0,-331,-7.27E-05,47,38,46,190850,92866,22924,28106,17365,23285,16747273,14949,Tag0,unknown
1.57E+12,0,113,2.48E-05,54,43,46,1135336,63795,17255,16756486,29669,16746299,26248,13073,Tag0,unknown
1.57E+12,0,13,2.86E-06,53,54,44,16747551,56855,28310,16753935,20795,21555,16744353,10900,Tag0,unknown
1.57E+12,0,53,1.16E-05,51,54,44,16777009,20978,8368,6534,1564,8847,5475,4853,Tag0,unknown
1.57E+12,0,6,1.32E-06,60,53,44,99660,14658,4748,2517,4372,6378,3769,5224,Tag0,unknown
1.57E+12,0,37,8.13E-06,60,66,46,520771,15439,16745266,16758909,28379,19383,18689,8786,Tag0,unknown
1.57E+12,0,39,8.57E-06,56,66,36,272450,177648,16775421,16765944,21491,29230,21980,4628,Tag0,unknown
1.57E+12,0,50,1.10E-05,61,64,60,81792,16776313,19786,21604,7908,16748770,20531,3509,Tag0,unknown
1.57E+12,0,72,1.58E-05,41,70,60,162972,100440,41621,9297,19450,15697,18232,12267,Tag0,unknown
1.57E+12,0,52,1.14E-05,44,54,60,27811,16744752,4959,12144,10349,14062,11084,2434,Tag0,unknown
1.57E+12,0,-95,-2.09E-05,61,50,60,32224,16759325,6373,13772,6343,23618,16748524,4790,Tag0,unknown
1.57E+12,0,3,6.59E-07,69,44,46,16755153,2768,1793,1111,5275,4205,3977,4358,Tag0,unknown
1.57E+12,0,38,8.35E-06,94,43,46,258597,16749590,15822,25813,14069,16748330,23740,5552,Tag0,unknown
1.57E+12,0,27,5.93E-06,88,34,46,240990,94707,8158,10691,27616,17712,15527,5013,Tag0,unknown
1.57E+12,0,33,7.25E-06,93,50,46,9709,8566,19595,19384,5228,21758,10272,2046,Tag0,unknown
1.57E+12,0,72,1.58E-05,75,48,46,22513,30249,4844,6427,16821,7406,12967,3243,Tag0,unknown
1.57E+12,0,27,5.93E-06,61,40,46,263615,69844,1452,23950,21861,14129,9368,5380,Tag0,unknown
timestampMs,poorSignal,eegRawValue,eegRawValueVolts,attention,meditation,blinkStrength,delta,theta,alphaLow,alphaHigh,betaLow,betaHigh,gammaLow,gammaMid,tagEvent,location
1.56779E+12,25,43,9.45E-06,0,0,56,11,0,0,0,0,1,1,1,Tag0,unknown
1.56779E+12,25,43,9.45E-06,0,0,56,11,0,0,0,0,1,1,1,Tag0,unknown
1.56779E+12,0,-328,-7.21E-05,0,0,98,1086098,198651,26001,5198,6284,19027,28030,8377,Tag0,unknown
1.56779E+12,0,114,2.50E-05,0,0,62,1086098,198651,26001,5198,6284,19027,28030,8377,Tag0,unknown
1.56779E+12,0,2,4.39E-07,0,0,62,152244,71455,11333,4985,5292,9875,5717,2195,Tag0,unknown
1.56779E+12,0,-361,-7.93E-05,53,53,56,23794,16761447,14397,16748883,20831,31186,30468,5475,Tag0,unknown
1.56779E+12,0,64,1.41E-05,61,53,41,341780,16747736,2340,2714,2126,8766,6496,2562,Tag0,unknown
1.56779E+12,0,40,8.79E-06,66,63,41,1024226,136063,28181,16752656,17375,27660,16769576,29516,Tag0,unknown
1.56779E+12,0,108,2.37E-05,80,54,41,241802,16756938,681,1771,10381,13793,10294,7215,Tag0,unknown
1.56779E+12,0,-283,-6.22E-05,74,38,41,356806,263913,10540,17591,32070,16759669,16744775,28633,Tag0,unknown
1.56779E+12,0,278,6.11E-05,75,51,41,1749409,143300,16756145,73136,11450,16773826,26242,32336,Tag0,unknown
1.56779E+12,0,22,4.83E-06,77,48,46,631900,16758216,14849,2445,11553,12002,11151,4972,Tag0,unknown
1.56779E+12,0,-258,-5.67E-05,77,63,46,705607,326172,16745591,86781,14594,134127,86849,16761987,Tag0,unknown
1.56779E+12,0,83,1.82E-05,69,75,46,113873,81508,26792,3832,10719,10557,20411,3380,Tag0,unknown
1.56779E+12,0,118,2.59E-05,53,53,46,645805,98463,2811,4279,4320,7551,17553,5213,Tag0,unknown
1.56779E+12,0,13,2.86E-06,51,61,46,2397883,89834,16774826,24895,16771,22602,16744431,16357,Tag0,unknown
1.56779E+12,0,-90,-1.98E-05,50,56,46,420193,114991,8538,23312,16564,16762653,27831,4752,Tag0,unknown
1.56779E+12,0,64,1.41E-05,70,47,46,419595,16766468,7401,6096,10766,16776723,16754011,25686,Tag0,unknown
1.56779E+12,0,16,3.52E-06,81,75,36,656165,27112,30967,10574,7531,8039,7302,4181,Tag0,unknown
1.56779E+12,0,12,2.64E-06,74,67,41,668572,421182,16770174,75706,11151,16745662,16749206,16744702,Tag0,unknown
1.56779E+12,0,8,1.76E-06,78,78,41,1289845,77929,16752713,18301,27356,16768013,16767884,14440,Tag0,unknown
1.56779E+12,0,93,2.04E-05,61,88,43,788058,104051,26366,16760614,26414,16748564,76103,13050,Tag0,unknown
1.56779E+12,0,85,1.87E-05,63,66,43,935157,16750679,862,3918,5021,5936,11799,9160,Tag0,unknown
1.56779E+12,0,-307,-6.75E-05,74,67,43,403184,16753608,11205,6298,4181,9848,14539,6246,Tag0,unknown
1.56779E+12,0,61,1.34E-05,56,64,43,503004,305718,76401,16750675,16761645,16748755,90634,24526,Tag0,unknown
1.56779E+12,0,37,8.13E-06,53,54,43,1068714,143329,11569,6978,7886,16218,14404,8487,Tag0,unknown
1.56779E+12,0,18,3.96E-06,47,60,40,1581177,528672,16770415,16756560,10466,16757039,66672,24181,Tag0,unknown
1.56779E+12,0,-306,-6.72E-05,35,63,40,16755746,26595,7647,5984,1732,1725,12230,1973,Tag0,unknown
1.56779E+12,0,-309,-6.79E-05,24,67,40,613920,62093,16752143,16747445,14538,5256,12892,14187,Tag0,unknown
1.56779E+12,0,-363,-7.98E-05,20,88,41,2336440,53942,90569,69763,21812,20534,7141,16754247,Tag0,unknown
1.56779E+12,0,-15,-3.30E-06,13,97,86,985821,917458,309851,112605,218477,16766872,37947,154480,Tag0,unknown
1.56779E+12,0,54,1.19E-05,21,100,77,433705,7572,16761944,3552,17841,7217,11110,2365,Tag0,unknown
1.56779E+12,0,92,2.02E-05,26,97,55,980984,633471,84026,23726,16759118,16746330,16746516,7741,Tag0,unknown
1.56779E+12,0,103,2.26E-05,23,80,43,722413,82057,9162,2992,2511,4269,4454,2082,Tag0,unknown
1.56779E+12,0,-89,-1.96E-05,43,66,57,544241,16753923,4421,3693,19237,13254,14367,1209,Tag0,unknown
1.56779E+12,0,-257,-5.65E-05,41,53,40,621055,83357,26949,10146,11371,12774,10947,7348,Tag0,unknown
1.56779E+12,0,75,1.65E-05,54,60,40,1361905,32976,25657,14548,20557,24283,23097,2977,Tag0,unknown
1.56779E+12,0,-60,-1.32E-05,75,70,39,731987,80400,16774645,16746377,29276,16777013,53206,9529,Tag0,unknown
1.56779E+12,0,-267,-5.87E-05,60,78,39,233364,61973,31327,4321,11214,8979,18179,4157,Tag0,unknown
1.56779E+12,0,346,7.60E-05,70,67,34,188825,31415,3639,3226,13861,13621,5136,2102,Tag0,unknown
1.56779E+12,0,103,2.26E-05,57,70,44,514677,92290,16750453,5381,3853,5757,14694,1446,Tag0,unknown
1.56779E+12,0,122,2.68E-05,40,69,40,766430,72184,15573,20988,4204,6441,10997,5568,Tag0,unknown
1.56779E+12,0,60,1.32E-05,60,75,42,668880,16764379,13510,16746771,16748023,16752544,24639,10262,Tag0,unknown
1.56779E+12,0,85,1.87E-05,51,90,42,95081,31552,19851,8452,3264,10300,5278,3109,Tag0,unknown
1.56779E+12,0,113,2.48E-05,75,93,42,25934,16691,3128,16745972,21344,24061,16744542,30061,Tag0,unknown
1.56779E+12,0,39,8.57E-06,90,87,38,38620,16747169,12634,2199,14846,12835,10392,2001,Tag0,unknown
1.56779E+12,0,-29,-6.37E-06,77,88,39,1701349,234281,96945,16769350,27289,16757558,94797,13853,Tag0,unknown
1.56779E+12,0,-358,-7.87E-05,81,87,39,3061179,62156,16769062,16760573,29513,68906,16776240,17416,Tag0,unknown
1.56779E+12,0,10,2.20E-06,63,74,39,183749,155785,6522,16515,5007,11227,18375,2441,Tag0,unknown
1.56779E+12,0,27,5.93E-06,69,67,35,646045,16754074,7718,3180,5114,27313,11728,14239,Tag0,unknown
1.56779E+12,0,18,3.96E-06,77,69,35,742313,136420,69352,16746647,9701,16757594,81284,20353,Tag0,unknown
1.56779E+12,0,266,5.84E-05,66,60,39,1632897,48085,7101,18195,13460,15544,16748645,8484,Tag0,unknown
1.56779E+12,0,6,1.32E-06,64,66,39,1114586,498575,16745381,54330,19829,16746185,94977,16753673,Tag0,unknown
1.56779E+12,0,-327,-7.19E-05,54,75,41,952210,67950,20258,12432,4675,18417,9087,8360,Tag0,unknown
1.56779E+12,0,97,2.13E-05,40,64,42,997462,242271,16756666,12910,26733,14681,16745022,4927,Tag0,unknown
1.56779E+12,0,-57,-1.25E-05,48,57,41,1972227,16747002,2257,2377,8284,11659,27970,4245,Tag0,unknown
1.56779E+12,0,100,2.20E-05,61,57,60,16773082,289924,16754505,16750527,17220,16774861,16766974,18480,Tag0,unknown
1.56779E+12,0,106,2.33E-05,63,56,60,206264,16759260,16653,8194,3752,15516,20070,4972,Tag0,unknown
1.56779E+12,0,54,1.19E-05,88,64,60,543779,42602,16777006,20829,13602,33162,79469,13755,Tag0,unknown
timestampMs,poorSignal,eegRawValue,eegRawValueVolts,attention,meditation,blinkStrength,delta,theta,alphaLow,alphaHigh,betaLow,betaHigh,gammaLow,gammaMid,tagEvent,location
1.56779E+12,0,-111,-2.44E-05,0,0,57,12396,5513,11401,11732,14169,10647,13597,5278,Tag0,unknown
1.56779E+12,0,-91,-2.00E-05,0,0,44,69743,72912,12780,13761,3353,12112,8583,1325,Tag0,unknown
1.56779E+12,0,40,8.79E-06,35,40,44,198290,123913,16769588,17408,19092,16393,31317,8668,Tag0,unknown
1.56779E+12,0,39,8.57E-06,53,43,44,9076,24788,4026,22479,11194,26497,16749095,11464,Tag0,unknown
1.56779E+12,0,7,1.54E-06,69,43,44,638687,16769370,19774,12942,7256,16754135,16750037,12174,Tag0,unknown
1.56779E+12,0,86,1.89E-05,77,50,44,9599,29158,14587,13089,12812,11648,23831,9323,Tag0,unknown
1.56779E+12,0,36,7.91E-06,100,54,44,15073,12040,11809,10968,18373,22393,16775648,10120,Tag0,unknown
1.56779E+12,0,67,1.47E-05,100,47,44,998540,16769175,23276,11044,11272,16770318,76766,13893,Tag0,unknown
1.56779E+12,0,75,1.65E-05,83,41,44,1332346,262232,16767612,19614,16761052,26628,79849,8973,Tag0,unknown
1.56779E+12,0,64,1.41E-05,83,29,44,651021,16747419,7469,5578,3538,8698,15581,2452,Tag0,unknown
1.56779E+12,0,66,1.45E-05,88,7,44,1588838,91197,8338,7051,27672,33517,16758200,30430,Tag0,unknown
1.56779E+12,0,66,1.45E-05,91,1,44,3868,18916,4704,3827,18703,16745053,16762967,26470,Tag0,unknown
1.56779E+12,0,45,9.89E-06,94,1,41,140813,16764786,2777,6690,2395,9167,8162,4824,Tag0,unknown
1.56779E+12,0,7,1.54E-06,90,3,41,1039395,16770907,12431,9755,10340,8985,11929,3185,Tag0,unknown
1.56779E+12,0,-127,-2.79E-05,64,21,42,128438,16974,4111,2392,3558,2172,3147,2361,Tag0,unknown
1.56779E+12,0,66,1.45E-05,47,50,66,1410234,279883,282771,21335,16749762,94405,90075,19585,Tag0,unknown
1.56779E+12,0,16,3.52E-06,26,66,39,662540,482825,107157,76737,29181,12377,17108,2211,Tag0,unknown
1.56779E+12,0,121,2.66E-05,20,78,37,1948421,455772,239278,75983,27465,16766370,16770714,9955,Tag0,unknown
1.56779E+12,0,106,2.33E-05,21,75,37,523341,135502,7523,23437,8995,17914,9801,8432,Tag0,unknown
1.56779E+12,0,-121,-2.66E-05,13,57,43,425825,53731,13341,21899,3145,12081,13355,3792,Tag0,unknown
1.56779E+12,0,60,1.32E-05,37,54,41,962459,123294,16771453,16760382,16751276,16773383,16764614,14120,Tag0,unknown
1.56779E+12,0,-152,-3.34E-05,40,35,35,2193503,367577,32224,16756538,23250,16759190,103742,24014,Tag0,unknown
1.56779E+12,0,59,1.30E-05,50,47,46,815346,16766759,26630,13983,3914,26375,8489,6235,Tag0,unknown
1.56779E+12,0,104,2.29E-05,64,57,46,1086814,23223,17137,8142,4711,18524,7300,4360,Tag0,unknown
1.56779E+12,0,86,1.89E-05,64,44,41,876048,267276,28317,26720,9471,71709,82310,17714,Tag0,unknown
1.56779E+12,0,-290,-6.37E-05,84,67,61,90121,20531,16768652,16746287,26067,80819,67064,19949,Tag0,unknown
1.56779E+12,0,-94,-2.07E-05,63,41,43,1837886,1037327,28279,72367,16754572,16746811,75128,12670,Tag0,unknown
1.56779E+12,0,-64,-1.41E-05,60,37,42,1063196,16756006,16556,10799,14204,16452,18229,3497,Tag0,unknown
1.56779E+12,0,-99,-2.18E-05,47,27,42,635381,329307,14805,16250,4513,19789,11227,19178,Tag0,unknown
1.56779E+12,0,74,1.63E-05,30,14,42,940889,341138,39081,16756246,33697,74270,89185,26076,Tag0,unknown
1.56779E+12,0,-261,-5.73E-05,48,26,41,384303,87670,11328,6684,2518,15407,16752395,8639,Tag0,unknown
1.56779E+12,0,80,1.76E-05,43,24,41,71927,23335,2741,8659,5474,4975,5698,2066,Tag0,unknown
1.56779E+12,0,54,1.19E-05,51,47,44,1538187,128429,73327,16621,5003,16747721,20372,9787,Tag0,unknown
1.56779E+12,0,44,9.67E-06,40,44,57,960835,133880,30483,17964,24550,12943,18459,2821,Tag0,unknown
1.56779E+12,0,264,5.80E-05,40,41,57,2623429,16774716,11289,11363,8636,12941,15929,15494,Tag0,unknown
1.56779E+12,0,-265,-5.82E-05,38,16,38,590171,16751133,1352,1848,768,4307,8400,1696,Tag0,unknown
1.56779E+12,0,-89,-1.96E-05,37,40,38,109475,72519,16758658,14572,4153,12900,16748537,3247,Tag0,unknown
1.56779E+12,0,-112,-2.46E-05,41,53,38,2295345,150325,16759147,97108,16758852,31162,16769690,16745989,Tag0,unknown
1.56779E+12,0,119,2.61E-05,37,54,43,1760586,105732,16746870,27477,4722,21493,16596,3958,Tag0,unknown
1.56779E+12,0,-273,-6.00E-05,43,80,39,54689,14246,5879,1826,2857,4500,3378,3153,Tag0,unknown
1.56779E+12,0,87,1.91E-05,51,64,39,280479,16746488,11041,919,1408,8299,6932,3922,Tag0,unknown
1.56779E+12,0,26,5.71E-06,53,51,40,326620,45989,30900,7138,4531,21626,17631,6968,Tag0,unknown
1.56779E+12,0,-112,-2.46E-05,56,64,40,777278,70525,16755109,16747020,7388,18868,16899,3350,Tag0,unknown
1.56779E+12,0,-284,-6.24E-05,43,67,40,421655,101439,85852,7778,4259,14840,31653,3894,Tag0,unknown
1.56779E+12,0,-289,-6.35E-05,37,56,42,1116439,695966,16775792,16752718,15404,80060,136781,8773,Tag0,unknown
1.56779E+12,0,38,8.35E-06,30,60,42,609142,41909,16757208,5778,16489,13008,12125,10642,Tag0,unknown
1.56779E+12,0,93,2.04E-05,29,47,41,982408,16762110,12670,10523,6564,8651,15776,1916,Tag0,unknown
1.56779E+12,0,-365,-8.02E-05,30,30,41,303756,288761,30149,30805,11173,21856,28292,9728,Tag0,unknown
1.56779E+12,0,101,2.22E-05,37,24,41,81223,60002,5685,2346,10755,23999,16746102,6916,Tag0,unknown
1.56779E+12,0,52,1.14E-05,40,27,41,870073,88566,31080,14860,14916,16207,16107,5339,Tag0,unknown
1.56779E+12,0,20,4.39E-06,47,26,41,1232754,265850,74722,26408,16766341,80384,84364,23395,Tag0,unknown
1.56779E+12,0,70,1.54E-05,53,43,41,658551,88987,16760327,10154,7304,18897,17169,8028,Tag0,unknown
1.56779E+12,0,-261,-5.73E-05,61,67,39,721839,16758066,5387,23778,11714,27022,23311,7809,Tag0,unknown
1.56779E+12,0,74,1.63E-05,66,69,39,656827,16753137,3899,23373,5900,15066,21927,5834,Tag0,unknown
1.56779E+12,0,119,2.61E-05,70,75,38,1103218,25648,8847,7600,5861,15650,22931,5000,Tag0,unknown
1.56779E+12,0,50,1.10E-05,83,77,40,609826,23123,16315,10165,4120,21199,10727,8698,Tag0,unknown
1.56779E+12,0,-269,-5.91E-05,80,70,43,788366,252228,16746091,67436,32432,95968,16750193,29116,Tag0,unknown
1.56779E+12,0,-334,-7.34E-05,78,54,41,1642630,185297,16022,23581,18551,16761687,16767251,18423,Tag0,unknown
1.56779E+12,0,8,1.76E-06,64,35,41,1192735,914207,68716,16747506,16745221,44341,91414,34141,Tag0,unknown
timestampMs,poorSignal,eegRawValue,eegRawValueVolts,attention,meditation,blinkStrength,delta,theta,alphaLow,alphaHigh,betaLow,betaHigh,gammaLow,gammaMid,tagEvent,location
1.56779E+12,25,-44,-9.67E-06,0,0,41,1643,105,69,8,11,34,24,6,Tag0,unknown
1.56779E+12,0,49,1.08E-05,0,0,35,196603,70960,23447,11318,8545,11264,8216,7419,Tag0,unknown
1.56779E+12,0,-305,-6.70E-05,0,0,35,220640,30285,5592,4843,5945,4889,3492,994,Tag0,unknown
1.56779E+12,0,55,1.21E-05,0,0,39,167449,24390,8364,19249,22498,11179,8810,3836,Tag0,unknown
1.56779E+12,0,41,9.01E-06,30,51,39,105551,16775410,27745,16884,8804,10293,8264,2920,Tag0,unknown
1.56779E+12,0,81,1.78E-05,54,67,39,4897,20756,24271,7167,5313,31097,16756812,9573,Tag0,unknown
1.56779E+12,0,56,1.23E-05,61,69,39,157655,27304,4151,13573,10650,11259,10394,2358,Tag0,unknown
1.56779E+12,0,-294,-6.46E-05,51,51,39,382424,40153,3750,6083,5953,11973,9526,4852,Tag0,unknown
1.56779E+12,0,50,1.10E-05,64,53,42,311550,36024,16759477,16543,12288,16749874,16752955,12006,Tag0,unknown
1.56779E+12,0,117,2.57E-05,48,20,42,42946,31120,373,2670,2529,8303,2291,3777,Tag0,unknown
1.56779E+12,0,11,2.42E-06,48,17,37,719495,60328,14197,19387,31929,16748888,29295,17000,Tag0,unknown
1.56779E+12,0,21,4.61E-06,81,48,37,6406,9406,12296,18787,6355,80763,16759476,8517,Tag0,unknown
1.56779E+12,0,36,7.91E-06,60,41,37,782895,16767823,15086,3128,7608,5346,16746560,3267,Tag0,unknown
1.56779E+12,0,-343,-7.54E-05,54,53,37,966715,173619,14707,16747655,19904,41461,16770986,26619,Tag0,unknown
1.56779E+12,0,-204,-4.48E-05,48,61,39,1985184,16771471,8755,17187,5659,23665,12829,20229,Tag0,unknown
1.56779E+12,0,-267,-5.87E-05,16,54,39,265765,56498,16471,22340,4700,25996,16750723,8113,Tag0,unknown
1.56779E+12,0,5,1.10E-06,21,56,39,68806,16769030,11724,9374,1360,7279,6182,2775,Tag0,unknown
1.56779E+12,0,-296,-6.50E-05,3,70,39,459377,528780,68405,57147,16744995,16766660,106223,21744,Tag0,unknown
1.56779E+12,0,55,1.21E-05,1,84,46,1893803,104590,90938,31299,9145,16491,24521,21520,Tag0,unknown
1.56779E+12,0,60,1.32E-05,1,80,46,868972,208899,26358,20194,17960,19828,26480,9796,Tag0,unknown
1.56779E+12,0,122,2.68E-05,1,54,46,631545,39059,975,7363,3049,3211,8272,3165,Tag0,unknown
1.56779E+12,0,49,1.08E-05,1,64,40,2203478,180626,71799,93001,16773151,16753073,16774960,27701,Tag0,unknown
1.56779E+12,0,86,1.89E-05,1,38,40,1340964,546865,16757975,16775141,22610,146486,36473,26707,Tag0,unknown
1.56779E+12,0,-259,-5.69E-05,10,29,37,761139,132323,8200,7503,7920,19811,26145,4745,Tag0,unknown
1.56779E+12,0,20,4.39E-06,26,44,41,1116009,46305,12702,13546,9081,23316,57579,12174,Tag0,unknown
1.56779E+12,0,-273,-6.00E-05,41,37,41,25889,32336,14038,8818,18660,28476,16758905,12288,Tag0,unknown
1.56779E+12,0,-149,-3.27E-05,37,47,41,151273,16761039,12108,7966,4459,7874,9526,978,Tag0,unknown
1.56779E+12,0,102,2.24E-05,41,57,41,359728,90047,3186,23683,13426,27674,16754599,24835,Tag0,unknown
1.56779E+12,0,74,1.63E-05,41,70,43,533360,16752737,14134,6730,1933,10497,14323,2972,Tag0,unknown
1.56779E+12,0,36,7.91E-06,23,84,71,88712,6993,9703,3986,4656,1455,11448,2211,Tag0,unknown
1.56779E+12,0,37,8.13E-06,29,77,36,441131,16330,1452,3150,1579,4488,4230,1914,Tag0,unknown
1.56779E+12,0,40,8.79E-06,26,88,40,616188,16764816,29543,3364,12552,12456,17732,8533,Tag0,unknown
1.56779E+12,0,-279,-6.13E-05,16,97,37,774935,16771654,16776560,16760979,5983,11003,16819,5230,Tag0,unknown
1.56779E+12,0,89,1.96E-05,21,64,37,1458584,48138,3472,13700,10865,18408,31150,2923,Tag0,unknown
1.56779E+12,0,36,7.91E-06,10,47,37,460954,211343,12444,1593,9856,14264,9114,1467,Tag0,unknown
1.56779E+12,0,87,1.91E-05,14,48,37,98872,16744979,22326,11903,3439,17508,9630,9627,Tag0,unknown
1.56779E+12,0,-100,-2.20E-05,29,17,37,24780,21935,3902,220,2292,6317,4497,528,Tag0,unknown
1.56779E+12,0,84,1.85E-05,43,24,37,1115542,64557,19618,21108,16411,93314,16750373,20966,Tag0,unknown
1.56779E+12,0,65,1.43E-05,56,53,35,899177,101072,61104,8530,31551,79370,73133,29765,Tag0,unknown
1.56779E+12,0,149,3.27E-05,50,43,39,153658,16460,5207,1110,1652,2999,1320,750,Tag0,unknown
1.56779E+12,0,60,1.32E-05,56,30,44,517463,16755753,1538,2080,7239,24031,26908,7610,Tag0,unknown
1.56779E+12,0,42,9.23E-06,30,40,38,669793,221445,27486,16771728,13225,13214,22551,6442,Tag0,unknown
1.56779E+12,0,34,7.47E-06,21,53,40,2532490,96226,311239,16744354,16751276,16759949,34379,16767070,Tag0,unknown
1.56779E+12,0,37,8.13E-06,13,48,40,417410,281892,25484,16757130,7403,18537,32578,25347,Tag0,unknown
1.56779E+12,0,-122,-2.68E-05,1,67,40,941697,80783,19219,12048,10374,11507,30722,3381,Tag0,unknown
1.56779E+12,0,114,2.50E-05,3,56,35,2038538,395490,30963,16744885,27174,16750120,93314,16747384,Tag0,unknown
1.56779E+12,0,28,6.15E-06,1,34,41,1069098,489134,16759433,89336,16750650,16753916,16772627,9889,Tag0,unknown
1.56779E+12,0,-94,-2.07E-05,14,29,41,539014,79596,13050,4977,2621,20583,16745318,5770,Tag0,unknown
1.56779E+12,0,-275,-6.04E-05,20,34,42,187825,68275,29823,17355,15718,21409,16745155,6831,Tag0,unknown
1.56779E+12,0,-116,-2.55E-05,51,38,42,58377,16747361,11339,3604,4233,20876,6517,5036,Tag0,unknown
1.56779E+12,0,23,5.05E-06,57,41,41,278770,16764051,17444,6516,2590,16748409,9896,4839,Tag0,unknown
1.56779E+12,0,125,2.75E-05,57,41,41,278770,16764051,17444,6516,2590,16748409,9896,4839,Tag0,unknown
1.56779E+12,0,91,2.00E-05,61,35,45,262945,16764729,13447,6348,6199,5643,21610,4564,Tag0,unknown
1.56779E+12,0,59,1.30E-05,41,20,45,292548,344256,7325,17873,7975,19854,11056,8884,Tag0,unknown
1.56779E+12,0,-262,-5.76E-05,17,11,36,1106881,157197,13825,6116,4705,7963,19015,3879,Tag0,unknown
1.56779E+12,0,-93,-2.04E-05,1,20,36,108110,302864,71895,39791,16773716,76511,16776043,10104,Tag0,unknown
1.56779E+12,0,-257,-5.65E-05,8,34,36,194953,26014,28523,16988,1239,13571,27532,4769,Tag0,unknown
1.56779E+12,0,269,5.91E-05,16,51,36,672293,257009,79308,85007,16751019,16775449,16774885,16771931,Tag0,unknown
1.56779E+12,0,3,6.59E-07,40,69,43,1070438,54234,131913,16758287,16773015,139383,16772112,20757,Tag0,unknown
timestampMs,poorSignal,eegRawValue,eegRawValueVolts,attention,meditation,blinkStrength,delta,theta,alphaLow,alphaHigh,betaLow,betaHigh,gammaLow,gammaMid,tagEvent,location
1.56779E+12,25,-301,-6.61E-05,0,0,83,1093,1061,80,117,15,5,10,22,Tag0,unknown
1.56779E+12,0,-60,-1.32E-05,0,0,39,2304173,273945,12641,16747583,11517,7528,7959,8896,Tag0,unknown
1.56779E+12,0,-340,-7.47E-05,0,0,39,83060,16752558,21383,16745469,7768,28865,16762410,14117,Tag0,unknown
1.56779E+12,0,117,2.57E-05,0,0,39,195485,170528,77538,27522,7288,16748488,16767547,23461,Tag0,unknown
1.56779E+12,0,-295,-6.48E-05,47,41,43,59283,16764423,16095,7171,7356,11327,11757,4814,Tag0,unknown
1.56779E+12,0,-105,-2.31E-05,53,29,37,343274,77858,4060,7896,9760,13226,14546,2718,Tag0,unknown
1.56779E+12,0,-310,-6.81E-05,51,24,36,16766932,16755042,6956,2664,1559,2982,4361,1427,Tag0,unknown
1.56779E+12,0,-266,-5.84E-05,63,16,36,16757097,21256,1652,3645,7097,6409,5689,2102,Tag0,unknown
1.56779E+12,0,112,2.46E-05,53,10,36,689030,64512,27559,4010,3859,6350,15178,6307,Tag0,unknown
1.56779E+12,0,-263,-5.78E-05,53,29,36,16773678,9255,5671,505,1505,2581,3105,1405,Tag0,unknown
1.56779E+12,0,-186,-4.09E-05,60,40,44,765216,16756012,21552,8812,16894,10964,16755819,4899,Tag0,unknown
1.56779E+12,0,-268,-5.89E-05,60,69,42,1709397,64545,157959,109106,16774213,131089,16754471,24261,Tag0,unknown
1.56779E+12,0,-134,-2.94E-05,70,57,40,620326,16770858,1968,4998,6196,11973,19412,15764,Tag0,unknown
1.56779E+12,0,-257,-5.65E-05,77,38,43,244002,12056,405,1226,1067,3836,3546,1786,Tag0,unknown
1.56779E+12,0,-277,-6.09E-05,70,37,39,2017039,672004,151536,60972,8836,66910,88943,18599,Tag0,unknown
1.56779E+12,0,-268,-5.89E-05,61,4,39,779178,162376,14227,12082,3480,15695,25141,15702,Tag0,unknown
1.56779E+12,0,-325,-7.14E-05,67,30,42,1706829,36408,37678,16755624,16758000,34757,42983,20597,Tag0,unknown
1.56779E+12,0,38,8.35E-06,54,37,40,730388,1581565,218473,34142,16748294,38948,16765326,16750702,Tag0,unknown
1.56779E+12,0,-154,-3.38E-05,44,13,38,1620280,248655,9083,12984,24920,6151,20579,11728,Tag0,unknown
1.56779E+12,0,99,2.18E-05,40,24,41,73639,28578,1145,7440,1813,2109,3570,1341,Tag0,unknown
1.56779E+12,0,90,1.98E-05,35,13,39,985713,282406,16756012,31363,17930,16776631,16775297,29836,Tag0,unknown
1.56779E+12,0,71,1.56E-05,44,26,41,16760904,18876,8508,4117,3614,5788,3569,2220,Tag0,unknown
1.56779E+12,0,339,7.45E-05,56,40,50,1458386,536501,16775098,16757240,16756846,16766518,47956,33761,Tag0,unknown
1.56779E+12,0,86,1.89E-05,60,26,40,571963,209726,14836,8183,14900,19228,31125,5516,Tag0,unknown
1.56779E+12,0,-284,-6.24E-05,63,17,40,1340479,375276,16772175,10625,14427,153313,135604,16274,Tag0,unknown
1.56779E+12,0,42,9.23E-06,70,24,40,389306,8960,11746,1162,414,10043,6592,2265,Tag0,unknown
1.56779E+12,0,8,1.76E-06,80,26,43,2117690,255526,16749304,16775139,69284,36111,133862,17017,Tag0,unknown
1.56779E+12,0,-322,-7.08E-05,80,40,38,433004,28345,1297,8070,2321,3327,3549,3182,Tag0,unknown
1.56779E+12,0,40,8.79E-06,81,64,39,84257,3501,2527,2173,315,2885,4930,1005,Tag0,unknown
1.56779E+12,0,23,5.05E-06,61,41,39,1857408,1007502,97478,16750155,25185,16757633,123047,16754025,Tag0,unknown
1.56779E+12,0,65,1.43E-05,54,35,37,373833,148061,9120,9388,9963,19499,27451,7576,Tag0,unknown
1.56779E+12,0,-261,-5.73E-05,53,41,37,3006803,660299,172290,38644,26038,79620,16749578,16563,Tag0,unknown
1.56779E+12,0,114,2.50E-05,51,35,39,825508,16769080,14616,21028,3698,24638,19052,3222,Tag0,unknown
1.56779E+12,0,28,6.15E-06,56,43,43,146529,29828,5227,3576,3148,2895,16024,1747,Tag0,unknown
1.56779E+12,0,49,1.08E-05,56,40,43,1705238,406190,30823,13695,28615,16768447,16750649,3168,Tag0,unknown
1.56779E+12,0,58,1.27E-05,67,38,38,629394,16752955,26442,3962,7082,18534,18508,2042,Tag0,unknown
1.56779E+12,0,59,1.30E-05,57,29,40,901840,721941,33464,94115,16750280,67517,68098,16746284,Tag0,unknown
1.56779E+12,0,-307,-6.75E-05,57,11,36,685400,334070,9986,13467,14469,25167,10375,9121,Tag0,unknown
1.56779E+12,0,-281,-6.17E-05,63,30,36,1073335,106544,76597,16146,27235,16774001,16775400,9003,Tag0,unknown
1.56779E+12,0,44,9.67E-06,78,27,36,1668653,191539,28231,16763845,16761276,81078,16756606,22441,Tag0,unknown
1.56779E+12,0,-91,-2.00E-05,81,40,36,599360,339239,16756860,14602,15431,16756902,87401,16745857,Tag0,unknown
1.56779E+12,0,274,6.02E-05,81,40,36,599360,339239,16756860,14602,15431,16756902,87401,16745857,Tag0,unknown
1.56779E+12,0,-104,-2.29E-05,63,27,46,16765723,28641,11145,2620,1992,4569,6557,1703,Tag0,unknown
1.56779E+12,0,-311,-6.83E-05,53,37,41,951392,110526,16760144,26367,8699,17669,16753649,6058,Tag0,unknown
1.56779E+12,0,20,4.39E-06,56,37,41,107394,28098,4617,446,1471,5000,4569,2185,Tag0,unknown
1.56779E+12,0,98,2.15E-05,57,43,41,1934083,812870,224610,16751126,94619,202249,80000,74837,Tag0,unknown
1.56779E+12,0,-308,-6.77E-05,57,43,41,1934083,812870,224610,16751126,94619,202249,80000,74837,Tag0,unknown
1.56779E+12,0,-263,-5.78E-05,63,26,41,687467,16766331,5290,14382,3267,10147,24319,16606,Tag0,unknown
1.56779E+12,0,103,2.26E-05,70,26,41,1178738,90346,17086,4751,7946,16752925,30485,8143,Tag0,unknown
1.56779E+12,0,122,2.68E-05,64,16,41,886718,116387,3190,21414,3668,17830,29647,7541,Tag0,unknown
1.56779E+12,0,16,3.52E-06,66,30,41,2380606,566162,291505,73007,16745712,61421,16762592,16759819,Tag0,unknown
1.56779E+12,0,76,1.67E-05,66,24,43,1184930,638142,71417,16766240,10305,37167,16757270,18671,Tag0,unknown
1.56779E+12,0,122,2.68E-05,56,30,39,271063,112939,16750171,17258,14049,30180,14511,5703,Tag0,unknown
1.56779E+12,0,89,1.96E-05,67,23,39,379973,300626,11945,14523,27371,144938,16770112,25288,Tag0,unknown
1.56779E+12,0,48,1.05E-05,64,1,44,698460,129308,9243,5126,4678,16109,16676,5372,Tag0,unknown
1.56779E+12,0,12,2.64E-06,69,14,36,154684,9788,4489,1410,1407,3430,2360,1029,Tag0,unknown
1.56779E+12,0,-266,-5.84E-05,69,3,43,1931809,824833,17878,77976,16745647,60936,91868,26474,Tag0,unknown
1.56779E+12,0,-108,-2.37E-05,50,11,40,1257055,349623,14671,19327,24875,13854,16749220,17916,Tag0,unknown
1.56779E+12,0,124,2.72E-05,44,14,39,1659335,330385,12965,17495,14421,14855,32031,5588,Tag0,unknown
timestampMs,poorSignal,eegRawValue,eegRawValueVolts,attention,meditation,blinkStrength,delta,theta,alphaLow,alphaHigh,betaLow,betaHigh,gammaLow,gammaMid,tagEvent,location
1.56779E+12,25,326,7.16E-05,0,0,40,2001,16777185,67,20,65,46,34,49,Tag0,unknown
1.56779E+12,0,-343,-7.54E-05,0,0,39,80991,16093,5198,2691,2060,2748,3423,1278,Tag0,unknown
1.56779E+12,0,-261,-5.73E-05,0,0,39,412249,70456,28905,20226,24898,22707,18849,13085,Tag0,unknown
1.56779E+12,0,108,2.37E-05,0,0,38,16759998,25542,4357,5954,4236,7448,14972,4479,Tag0,unknown
1.56779E+12,0,48,1.05E-05,51,51,38,292960,31512,19477,1384,3622,12760,18096,2794,Tag0,unknown
1.56779E+12,0,122,2.68E-05,34,54,39,171830,75238,15887,16029,7763,7262,14800,3772,Tag0,unknown
1.56779E+12,0,105,2.31E-05,29,37,39,1523331,121724,29753,14823,20065,26520,16745171,21729,Tag0,unknown
1.56779E+12,0,-95,-2.09E-05,37,17,39,799958,477400,32181,11359,17641,90310,16766907,18042,Tag0,unknown
1.56779E+12,0,-260,-5.71E-05,10,20,43,560044,146668,16767774,13106,21244,17155,16751161,5519,Tag0,unknown
1.56779E+12,0,-5,-1.10E-06,23,29,43,325309,46106,29061,20689,8819,17818,10801,4663,Tag0,unknown
1.56779E+12,0,54,1.19E-05,37,48,45,1156011,418214,75947,16747192,16746571,46254,148083,16762054,Tag0,unknown
1.56779E+12,0,41,9.01E-06,11,48,45,429574,1405024,16749628,16763333,31763,16752959,75763,16753748,Tag0,unknown
1.56779E+12,0,112,2.46E-05,8,16,38,490407,170722,8000,7007,10679,8032,15577,7048,Tag0,unknown
1.56779E+12,0,86,1.89E-05,20,23,38,395962,46683,16769735,9813,12825,22683,26134,9458,Tag0,unknown
1.56779E+12,0,26,5.71E-06,8,20,42,702119,60076,10437,10563,18650,10684,17850,14944,Tag0,unknown
1.56779E+12,0,-124,-2.72E-05,26,61,42,1154437,86017,16770740,30801,7254,14179,12843,11140,Tag0,unknown
1.56779E+12,0,29,6.37E-06,41,100,39,54001,22730,8535,8210,1726,3005,7220,2156,Tag0,unknown
1.56779E+12,0,52,1.14E-05,41,77,39,602617,108878,23882,5579,5959,25088,21430,6115,Tag0,unknown
1.56779E+12,0,-289,-6.35E-05,67,67,39,82089,9502,350,1403,965,7624,4445,2206,Tag0,unknown
1.56779E+12,0,-294,-6.46E-05,63,66,39,72915,11255,3696,5817,578,1478,4395,2591,Tag0,unknown
1.56779E+12,0,41,9.01E-06,61,51,40,259651,148743,25185,15902,7117,20197,74623,5657,Tag0,unknown
1.56779E+12,0,-259,-5.69E-05,48,44,40,16745354,16747684,1910,1679,3145,2641,3490,3864,Tag0,unknown
1.56779E+12,0,23,5.05E-06,48,54,40,67662,16754162,7435,15974,29825,16770591,73620,30795,Tag0,unknown
1.56779E+12,0,42,9.23E-06,67,43,40,1677407,126913,16746287,87056,25785,57838,16769429,17554,Tag0,unknown
1.56779E+12,0,48,1.05E-05,80,34,40,176172,16766762,5997,4916,4085,16335,14534,4722,Tag0,unknown
1.56779E+12,0,-275,-6.04E-05,100,35,40,342959,29703,1320,6605,7632,16748419,10307,2566,Tag0,unknown
1.56779E+12,0,-348,-7.65E-05,100,37,40,40054,32176,4828,4642,6464,17828,8515,8463,Tag0,unknown
1.56779E+12,0,-118,-2.59E-05,70,24,39,670323,211400,23456,17565,19616,12000,10727,6195,Tag0,unknown
1.56779E+12,0,-269,-5.91E-05,66,26,39,560144,146959,12718,13589,3017,29356,14977,8031,Tag0,unknown
1.56779E+12,0,18,3.96E-06,50,50,39,1507948,79530,16750042,24636,26911,16747861,16768683,21731,Tag0,unknown
1.56779E+12,0,120,2.64E-05,40,69,39,353415,30669,17253,14177,11392,12028,17442,5208,Tag0,unknown
1.56779E+12,0,-289,-6.35E-05,47,78,39,665923,136811,16756105,7770,13386,13892,28902,11851,Tag0,unknown
1.56779E+12,0,4,8.79E-07,56,74,40,1180236,135512,4457,16746256,64330,72958,16754660,21159,Tag0,unknown
1.56779E+12,0,69,1.52E-05,48,48,40,1136962,518046,24591,16752039,25633,66098,69665,7807,Tag0,unknown
1.56779E+12,0,51,1.12E-05,57,35,40,203147,155459,14960,16763719,12650,95110,16767979,16752432,Tag0,unknown
1.56779E+12,0,-349,-7.67E-05,87,21,40,499570,97938,29412,5254,16746778,53246,43691,28475,Tag0,unknown
1.56779E+12,0,4,8.79E-07,69,35,43,240558,73536,7371,17482,17424,10299,8851,4808,Tag0,unknown
1.56779E+12,0,107,2.35E-05,63,27,39,533524,728438,16765817,1033,23979,16760141,63338,22626,Tag0,unknown
1.56779E+12,0,-293,-6.44E-05,60,27,41,339271,32296,5630,7957,6281,14532,18017,10245,Tag0,unknown
1.56779E+12,0,2,4.39E-07,60,40,41,67570,17510,8647,4850,6153,26304,16174,4464,Tag0,unknown
1.56779E+12,0,57,1.25E-05,70,41,40,2069642,162038,16766610,23602,16764756,72914,16768566,31522,Tag0,unknown
1.56779E+12,0,82,1.80E-05,75,40,40,373205,34972,1996,4242,1693,8738,12592,3688,Tag0,unknown
1.56779E+12,0,-92,-2.02E-05,67,41,37,53785,30410,204,11235,2694,7118,8517,3303,Tag0,unknown
1.56779E+12,0,25,5.49E-06,40,40,41,647559,45188,22100,6772,5857,11134,16745527,2561,Tag0,unknown
1.56779E+12,0,-124,-2.72E-05,27,35,41,886607,158202,25442,18819,22305,25033,25444,13408,Tag0,unknown
1.56779E+12,0,35,7.69E-06,43,66,61,1343565,61903,82004,30149,16757801,16773199,85682,13946,Tag0,unknown
1.56779E+12,0,-306,-6.72E-05,34,50,61,166899,16747123,2731,668,2825,2710,1812,1339,Tag0,unknown
1.56779E+12,0,26,5.71E-06,48,50,61,238194,146655,8734,16748669,27653,16760082,16748426,15122,Tag0,unknown
1.56779E+12,0,88,1.93E-05,60,44,61,905966,16764395,3789,8866,2005,26420,16775551,15486,Tag0,unknown
1.56779E+12,0,-126,-2.77E-05,60,48,39,763187,16746511,19124,15183,10686,19316,16755071,4472,Tag0,unknown
1.56779E+12,0,107,2.35E-05,74,66,39,932116,81826,19883,24368,19283,28311,18835,9209,Tag0,unknown
1.56779E+12,0,9,1.98E-06,63,70,47,1096060,61889,23013,20703,15242,18581,17944,5398,Tag0,unknown
1.56779E+12,0,3,6.59E-07,43,54,37,1066523,1240763,16752772,22681,16750959,86830,71187,25309,Tag0,unknown
1.56779E+12,0,5,1.10E-06,43,56,39,1553930,162999,16763274,46708,26150,85565,282671,19623,Tag0,unknown
1.56779E+12,0,49,1.08E-05,38,60,36,671666,11232,3148,2989,1374,2687,5369,8534,Tag0,unknown
1.56779E+12,0,84,1.85E-05,37,67,36,346854,58350,16753840,23609,13100,16376,14478,7563,Tag0,unknown
1.56779E+12,0,42,9.23E-06,40,100,36,2718577,16773874,76759,19360,11568,13312,24161,6235,Tag0,unknown
1.56779E+12,0,-379,-8.33E-05,20,100,40,350860,188581,149617,16755346,5440,22784,135626,31669,Tag0,unknown
1.56779E+12,0,-116,-2.55E-05,29,87,40,556125,97912,11726,3996,1732,16746336,10226,16553,Tag0,unknown
timestampMs,poorSignal,eegRawValue,eegRawValueVolts,attention,meditation,blinkStrength,delta,theta,alphaLow,alphaHigh,betaLow,betaHigh,gammaLow,gammaMid,tagEvent,location
1.56779E+12,80,43,9.45E-06,1,66,42,1297140,118518,71661,30353,22393,18196,3780,2222,Tag0,unknown
1.56779E+12,25,169,3.71E-05,0,0,42,58,4,1,2,1,2,3,2,Tag0,unknown
1.56779E+12,0,299,6.57E-05,0,0,95,535906,16776506,9231,4403,8323,11374,6008,10051,Tag0,unknown
1.56779E+12,0,118,2.59E-05,0,0,40,2133497,137603,17658,14983,68956,18394,16749079,12066,Tag0,unknown
1.56779E+12,0,85,1.87E-05,0,0,40,152074,9336,3423,3948,4400,6850,4417,4539,Tag0,unknown
1.56779E+12,0,57,1.25E-05,53,50,46,16756244,8226,3090,1753,1842,5527,5033,4805,Tag0,unknown
1.56779E+12,0,-548,-1.20E-04,51,56,44,531013,16756804,12366,3657,2929,9707,9383,4415,Tag0,unknown
1.56779E+12,0,11,2.42E-06,38,77,44,116329,159516,16759018,32429,11753,20473,9669,8462,Tag0,unknown
1.56779E+12,0,24,5.27E-06,20,63,44,1582158,1556628,109930,16768045,16747508,16772021,22369,20661,Tag0,unknown
1.56779E+12,0,-116,-2.55E-05,7,35,59,1701328,249159,14892,21619,16750380,16756124,163598,16776147,Tag0,unknown
1.56779E+12,0,44,9.67E-06,4,17,57,88241,122414,14384,11265,3310,20899,18187,3114,Tag0,unknown
1.56779E+12,0,-74,-1.63E-05,1,1,57,266320,617749,18697,28213,4003,14231,16759015,5987,Tag0,unknown
1.56779E+12,0,98,2.15E-05,23,8,50,818732,16775706,15829,14130,3588,15123,11756,6632,Tag0,unknown
1.56779E+12,0,-115,-2.53E-05,13,24,37,1168574,201758,8867,25611,8798,11383,23336,14073,Tag0,unknown
1.56779E+12,0,24,5.27E-06,26,57,47,2102461,60657,89295,16760882,27106,16773053,16773745,14703,Tag0,unknown
1.56779E+12,0,-286,-6.28E-05,43,67,47,507786,95922,11870,2157,2218,9653,14370,5346,Tag0,unknown
1.56779E+12,0,-312,-6.86E-05,38,35,47,309911,41719,6980,2826,2987,12941,15209,3534,Tag0,unknown
1.56779E+12,0,52,1.14E-05,47,53,36,225601,97903,16747952,9774,3687,12860,5881,10763,Tag0,unknown
1.56779E+12,0,289,6.35E-05,35,48,39,1200025,68015,16225,16754742,16753252,11203,10563,30184,Tag0,unknown
1.56779E+12,0,-104,-2.29E-05,30,63,50,123970,28040,7499,1587,2055,2635,7993,1400,Tag0,unknown
1.56779E+12,0,115,2.53E-05,35,96,40,578855,24089,10819,1523,972,5022,10747,1227,Tag0,unknown
1.56779E+12,0,17,3.74E-06,30,93,40,758378,105328,24680,16749190,8549,15733,18467,27997,Tag0,unknown
1.56779E+12,0,-354,-7.78E-05,27,93,42,1318125,48887,16771016,8526,18771,11980,26729,4457,Tag0,unknown
1.56779E+12,0,88,1.93E-05,35,100,42,2438596,1020811,236522,217831,34598,124582,225970,70750,Tag0,unknown
1.56779E+12,0,-297,-6.53E-05,23,91,39,1222403,259578,76345,13534,25563,25538,15980,10079,Tag0,unknown
1.56779E+12,0,101,2.22E-05,27,100,55,1692630,138311,15206,81966,12018,24072,16747197,15543,Tag0,unknown
1.56779E+12,0,22,4.83E-06,35,93,45,292662,18776,685,8930,6325,2979,10015,3709,Tag0,unknown
1.56779E+12,0,2,4.39E-07,26,88,59,1466619,303035,34543,16755413,86486,29515,16748135,16753541,Tag0,unknown
1.56779E+12,0,-124,-2.72E-05,26,94,54,841447,23568,5769,5556,5708,2318,6448,542,Tag0,unknown
1.56779E+12,0,89,1.96E-05,41,97,72,1278286,17667,22126,20117,4493,19831,17615,5757,Tag0,unknown
1.56779E+12,0,36,7.91E-06,43,100,39,417726,82100,32056,16749560,8691,20266,13813,4952,Tag0,unknown
1.56779E+12,0,-101,-2.22E-05,44,83,39,1681376,625372,69087,16748281,29007,16761772,77040,16759368,Tag0,unknown
1.56779E+12,0,-284,-6.24E-05,60,74,40,417713,25772,5578,6132,3901,8481,1994,3428,Tag0,unknown
1.56779E+12,0,84,1.85E-05,47,44,59,396517,247722,16766473,3300,15814,16752510,16760561,16749791,Tag0,unknown
1.56779E+12,0,-25,-5.49E-06,37,23,38,2638548,615413,16771470,16764159,16756262,16756047,81184,71750,Tag0,unknown
1.56779E+12,0,50,1.10E-05,51,37,38,174580,21608,5972,3804,1541,7484,6083,1078,Tag0,unknown
1.56779E+12,0,28,6.15E-06,29,17,45,1486516,331836,15495,16039,11857,13265,16767,5913,Tag0,unknown
1.56779E+12,0,-292,-6.42E-05,40,30,39,858548,16745868,11698,8292,7004,13863,3981,6617,Tag0,unknown
1.56779E+12,0,41,9.01E-06,51,41,43,1010581,402044,145842,20255,28079,75643,16772194,6600,Tag0,unknown
1.56779E+12,0,44,9.67E-06,38,60,38,621687,27076,16745106,11137,5881,5063,18661,2490,Tag0,unknown
1.56779E+12,0,88,1.93E-05,37,63,46,1227004,161798,18798,3393,3984,6128,17901,2789,Tag0,unknown
1.56779E+12,0,97,2.13E-05,17,38,43,543045,237928,7658,14213,14994,17367,11327,3954,Tag0,unknown
1.56779E+12,0,-296,-6.50E-05,10,41,38,426307,16748710,12394,4957,2131,3581,6530,1589,Tag0,unknown
1.56779E+12,0,119,2.61E-05,10,35,56,799114,142342,76415,16753393,14972,19306,29075,9726,Tag0,unknown
1.56779E+12,0,-257,-5.65E-05,21,44,56,1280579,421207,85521,16751297,66920,16761128,16767975,29744,Tag0,unknown
1.56779E+12,0,117,2.57E-05,23,60,60,2500927,105346,21763,11102,24400,13425,12980,3247,Tag0,unknown
1.56779E+12,0,-151,-3.32E-05,43,51,37,1070558,77372,16576,15385,22124,16749235,16745373,21814,Tag0,unknown
1.56779E+12,0,-293,-6.44E-05,44,17,53,1360874,682518,22239,29814,16750331,16772479,16775909,25131,Tag0,unknown
1.56779E+12,0,81,1.78E-05,48,27,53,1273070,16764269,14645,24149,11607,11975,10054,2950,Tag0,unknown
1.56779E+12,0,-292,-6.42E-05,56,21,41,363160,268305,18400,15207,22761,16751573,16768169,16759767,Tag0,unknown
1.56779E+12,0,-309,-6.79E-05,38,20,41,209523,153120,14595,25144,15084,14842,16747042,5037,Tag0,unknown
1.56779E+12,0,48,1.05E-05,51,37,41,466356,90225,17936,6968,2958,26646,14406,10354,Tag0,unknown
1.56779E+12,0,-89,-1.96E-05,57,35,40,588859,16763135,19963,16187,6270,18388,9090,7751,Tag0,unknown
1.56779E+12,0,-312,-6.86E-05,56,38,39,298740,99018,13879,11227,10751,19714,17604,3987,Tag0,unknown
1.56779E+12,0,-346,-7.60E-05,64,34,39,541353,16766267,7214,2193,3820,10685,11772,2922,Tag0,unknown
1.56779E+12,0,48,1.05E-05,60,35,39,2223041,45068,21190,17279,17269,24820,18787,3543,Tag0,unknown
1.56779E+12,0,8,1.76E-06,37,27,39,2254670,105686,16763422,5409,6208,7162,18133,4871,Tag0,unknown
1.56779E+12,0,57,1.25E-05,38,27,39,1017536,300030,2709,16769685,30154,16763992,84079,23341,Tag0,unknown
1.56779E+12,0,-297,-6.53E-05,23,38,39,619633,617762,48158,16771394,16755960,16745959,139987,18893,Tag0,unknown
timestampMs,poorSignal,eegRawValue,eegRawValueVolts,attention,meditation,blinkStrength,delta,theta,alphaLow,alphaHigh,betaLow,betaHigh,gammaLow,gammaMid,tagEvent,location
1.56779E+12,25,43,9.45E-06,0,0,38,10,1,0,1,0,2,0,1,Tag0,unknown
1.56779E+12,25,236,5.19E-05,0,0,38,16777114,62,1,4,3,6,2,4,Tag0,unknown
1.56779E+12,0,48,1.05E-05,0,0,38,115259,74820,9395,10567,7255,8371,8628,6876,Tag0,unknown
1.56779E+12,0,70,1.54E-05,0,0,38,13907,19460,6688,16643,2231,26544,18172,29381,Tag0,unknown
1.56779E+12,0,28,6.15E-06,0,0,38,13907,19460,6688,16643,2231,26544,18172,29381,Tag0,unknown
1.56779E+12,0,-269,-5.91E-05,41,54,38,226073,16744474,22359,9803,3756,23392,26401,16758554,Tag0,unknown
1.56779E+12,0,48,1.05E-05,40,50,40,522575,227411,66069,21360,16752309,16772549,16744672,5363,Tag0,unknown
1.56779E+12,0,64,1.41E-05,47,30,40,95821,16770199,1100,8912,10566,16745515,16756791,10603,Tag0,unknown
1.56779E+12,0,-333,-7.32E-05,44,17,40,111297,22294,1767,1847,1689,6000,6279,1929,Tag0,unknown
1.56779E+12,0,54,1.19E-05,34,8,44,1053999,16759861,7372,13508,7557,6251,4275,7644,Tag0,unknown
1.56779E+12,0,-153,-3.36E-05,29,1,36,806667,45847,7759,11204,26000,17256,16745430,8248,Tag0,unknown
1.56779E+12,0,-361,-7.93E-05,24,1,41,416287,16749255,565,4508,2544,10227,14943,5696,Tag0,unknown
1.56779E+12,0,-315,-6.92E-05,13,30,41,133315,12806,8165,3482,492,1248,6984,1050,Tag0,unknown
1.56779E+12,0,83,1.82E-05,14,24,60,2245544,187166,27174,16752825,15631,30848,16751913,14035,Tag0,unknown
1.56779E+12,0,-111,-2.44E-05,21,41,60,16745011,22095,5733,11102,21151,13794,30058,11077,Tag0,unknown
1.56779E+12,0,120,2.64E-05,17,56,60,1751357,49127,21030,14912,11379,22933,87402,19336,Tag0,unknown
1.56779E+12,0,12,2.64E-06,34,37,60,393535,62563,16746989,23766,24610,69319,36976,19211,Tag0,unknown
1.56779E+12,0,1,2.20E-07,38,48,60,1650031,218565,67266,67602,16767154,16765000,73564,16721,Tag0,unknown
1.56779E+12,0,-95,-2.09E-05,37,30,41,66362,17711,2833,409,3345,6450,8347,4029,Tag0,unknown
1.56779E+12,0,97,2.13E-05,37,48,44,1137848,16748338,22343,6002,3302,10930,12377,3187,Tag0,unknown
1.56779E+12,0,-269,-5.91E-05,41,44,42,16776287,16752182,10559,8901,12546,16745933,16756625,18616,Tag0,unknown
1.56779E+12,0,-281,-6.17E-05,40,17,42,16765942,14375,653,844,469,2054,3808,1142,Tag0,unknown
1.56779E+12,0,-348,-7.65E-05,24,26,42,884648,281961,16745171,20935,11569,18156,16775756,21095,Tag0,unknown
1.56779E+12,0,-125,-2.75E-05,21,1,44,422668,100707,13549,2660,1155,19497,31630,22603,Tag0,unknown
1.56779E+12,0,84,1.85E-05,4,17,40,666774,84152,16756250,25443,8219,13292,22672,13227,Tag0,unknown
1.56779E+12,0,53,1.16E-05,4,40,37,231905,84974,24015,7025,6849,16458,9525,4364,Tag0,unknown
1.56779E+12,0,-16,-3.52E-06,29,54,46,249352,23783,27099,4158,8485,16768189,27393,22904,Tag0,unknown
1.56779E+12,0,118,2.59E-05,40,67,47,24260,11354,1098,1973,794,4508,2895,836,Tag0,unknown
1.56779E+12,0,-139,-3.05E-05,41,47,41,250019,186899,31765,16768999,16755341,32224,94066,28146,Tag0,unknown
1.56779E+12,0,89,1.96E-05,34,44,41,461585,687334,122443,19201,16746090,16763501,16776590,24317,Tag0,unknown
1.56779E+12,0,23,5.05E-06,11,21,41,457757,499226,16747821,16748675,11928,16758071,70510,20779,Tag0,unknown
1.56779E+12,0,50,1.10E-05,3,50,41,548541,16751597,16755709,3728,5858,12261,8977,17758,Tag0,unknown
1.56779E+12,0,70,1.54E-05,13,57,40,16745554,11123,5419,1090,758,4624,2959,2828,Tag0,unknown
1.56779E+12,0,20,4.39E-06,21,60,37,1177954,101163,16764931,31202,16767545,16757855,78894,16762240,Tag0,unknown
1.56779E+12,0,38,8.35E-06,27,75,39,784722,16761432,11650,5836,6641,9294,22751,3658,Tag0,unknown
1.56779E+12,0,1,2.20E-07,29,34,39,1344292,492921,12449,16749739,16750765,42792,16749334,68537,Tag0,unknown
1.56779E+12,0,8,1.76E-06,27,24,39,649560,24538,6215,1137,2581,7935,4334,2942,Tag0,unknown
1.56779E+12,0,20,4.39E-06,23,13,39,330760,140657,13352,10666,3436,17846,8770,3807,Tag0,unknown
1.56779E+12,0,44,9.67E-06,21,16,39,467605,18203,2281,2537,1598,2397,2835,2122,Tag0,unknown
1.56779E+12,0,20,4.39E-06,20,16,46,1269154,350164,10999,17741,30754,16763261,16774340,16744616,Tag0,unknown
1.56779E+12,0,114,2.50E-05,13,21,39,1469276,207328,16751269,31524,11905,16747690,16749786,16760321,Tag0,unknown
1.56779E+12,0,-353,-7.76E-05,8,20,39,384349,111148,16568,4006,5889,10456,8590,10970,Tag0,unknown
1.56779E+12,0,92,2.02E-05,1,21,43,291968,118881,30126,24538,5308,7831,8228,4407,Tag0,unknown
1.56779E+12,0,91,2.00E-05,1,35,43,113714,16759775,3614,4053,495,5398,6567,950,Tag0,unknown
1.56779E+12,0,123,2.70E-05,1,40,43,1375802,62826,16746713,27221,25089,16753614,35554,27496,Tag0,unknown
1.56779E+12,0,70,1.54E-05,17,48,43,143585,59723,16744895,14214,31796,80911,16762663,16061,Tag0,unknown
1.56779E+12,0,-290,-6.37E-05,41,44,43,353697,6724,1125,1922,1621,4790,2304,1577,Tag0,unknown
1.56779E+12,0,71,1.56E-05,41,30,39,270956,16750150,1469,649,701,3485,3708,3814,Tag0,unknown
1.56779E+12,0,11,2.42E-06,43,17,39,1902645,186436,31004,18552,16658,91113,29356,27423,Tag0,unknown
1.56779E+12,0,29,6.37E-06,30,26,42,265876,16775008,12443,14341,13787,10664,12200,5130,Tag0,unknown
1.56779E+12,0,18,3.96E-06,14,35,42,2414744,339771,16764959,44755,32448,16747116,68405,16750918,Tag0,unknown
1.56779E+12,0,6,1.32E-06,27,67,42,544717,6268,4101,2734,1235,5665,5257,686,Tag0,unknown
1.56779E+12,0,-124,-2.72E-05,17,74,42,2463526,334285,16756801,24819,15391,16750873,58161,23909,Tag0,unknown
1.56779E+12,0,104,2.29E-05,8,56,34,601326,164488,12003,19799,8762,9692,16749216,2774,Tag0,unknown
1.56779E+12,0,97,2.13E-05,4,29,35,519630,332219,5731,17562,6498,17043,16753552,5431,Tag0,unknown
1.56779E+12,0,20,4.39E-06,1,21,39,2476066,228164,19963,85159,19657,16777066,74385,16074,Tag0,unknown
1.56779E+12,0,-260,-5.71E-05,1,26,40,339686,147530,28748,15775,13378,9088,17130,5631,Tag0,unknown
1.56779E+12,0,97,2.13E-05,1,56,42,776863,159198,139063,166804,22365,16755149,52582,16759961,Tag0,unknown
1.56779E+12,0,21,4.61E-06,1,78,40,115606,16768775,23306,1230,6470,4087,5879,5227,Tag0,unknown
timestampMs,poorSignal,eegRawValue,eegRawValueVolts,attention,meditation,blinkStrength,delta,theta,alphaLow,alphaHigh,betaLow,betaHigh,gammaLow,gammaMid,tagEvent,location
1.56779E+12,25,43,9.45E-06,0,0,46,0,0,0,0,0,0,1,0,Tag0,unknown
1.56779E+12,25,119,2.61E-05,0,0,46,46,3,1,0,0,1,1,0,Tag0,unknown
1.56779E+12,0,-333,-7.32E-05,0,0,46,846126,189334,18312,26993,11997,15950,17887,16173,Tag0,unknown
1.56779E+12,0,-116,-2.55E-05,0,0,63,558495,14671,24738,6552,4441,5016,2015,1087,Tag0,unknown
1.56779E+12,0,-270,-5.93E-05,0,0,63,1452900,116720,17498,4570,3612,8156,12205,5852,Tag0,unknown
1.56779E+12,0,43,9.45E-06,30,48,39,639434,303208,212666,16770921,10904,10093,15376,6719,Tag0,unknown
1.56779E+12,0,118,2.59E-05,38,43,43,241673,47325,11766,10750,7718,8779,21425,11909,Tag0,unknown
1.56779E+12,0,96,2.11E-05,56,38,37,1785652,281760,9161,16760579,32062,16765951,83292,16750677,Tag0,unknown
1.56779E+12,0,119,2.61E-05,64,47,42,991256,189064,115266,16761085,15859,16748023,16759536,16753422,Tag0,unknown
1.56779E+12,0,61,1.34E-05,77,44,45,16768533,23135,14587,10792,7598,1988,5252,2116,Tag0,unknown
1.56779E+12,25,42,9.23E-06,77,44,76,16750353,16774698,14636,12788,1924,9679,3409,2930,Tag0,unknown
1.56779E+12,25,-93,-2.04E-05,77,44,46,1522889,129105,16754764,13826,16260,10222,4216,1690,Tag0,unknown
1.56779E+12,0,112,2.46E-05,78,48,46,49527,29028,5020,3179,2627,2793,4507,2193,Tag0,unknown
1.56779E+12,0,-51,-1.12E-05,67,54,43,221234,34163,25636,12627,4727,8651,8610,2057,Tag0,unknown
1.56779E+12,0,1,2.20E-07,64,37,43,1890692,512859,30893,26113,12941,16748128,16766137,29210,Tag0,unknown
1.56779E+12,0,81,1.78E-05,84,27,38,80596,16674,3587,5272,4318,11421,5846,2466,Tag0,unknown
1.56779E+12,0,48,1.05E-05,100,29,38,92115,3109,2312,1169,2992,5758,16623,4272,Tag0,unknown
1.56779E+12,0,23,5.05E-06,97,13,38,183987,140239,1521,6010,6916,17600,11592,4850,Tag0,unknown
1.56779E+12,0,53,1.16E-05,97,21,38,653918,55945,13183,22973,10922,15574,13492,3266,Tag0,unknown
1.56779E+12,0,74,1.63E-05,64,10,38,2401142,1703122,16763338,16776874,16751203,32336,16761274,16755024,Tag0,unknown
1.56779E+12,0,69,1.52E-05,50,11,57,744376,246775,88868,16771719,16751506,16770323,16758929,28151,Tag0,unknown
1.56779E+12,0,-278,-6.11E-05,51,24,57,105249,7256,1623,1232,5158,1592,2053,2621,Tag0,unknown
1.56779E+12,0,36,7.91E-06,63,30,39,174987,16775611,16772305,25814,17811,16770106,31212,8407,Tag0,unknown
1.56779E+12,0,70,1.54E-05,74,35,43,119592,39297,4321,5969,13336,6237,12316,911,Tag0,unknown
1.56779E+12,0,-278,-6.11E-05,70,37,45,135906,14937,8901,1754,3686,2349,4701,932,Tag0,unknown
1.56779E+12,0,-88,-1.93E-05,75,38,40,16759081,16800,4957,2439,3641,5979,2797,824,Tag0,unknown
1.56779E+12,0,9,1.98E-06,66,21,36,1031484,208640,14728,12767,18241,16748897,65779,11477,Tag0,unknown
1.56779E+12,0,-124,-2.72E-05,80,29,39,20731,27436,5481,1944,3447,8359,4587,3323,Tag0,unknown
1.56779E+12,0,54,1.19E-05,91,16,39,86798,16745021,701,3960,4184,13788,6595,1692,Tag0,unknown
1.56779E+12,0,22,4.83E-06,94,16,41,1338724,16773792,23227,1830,11192,29533,31025,12099,Tag0,unknown
1.56779E+12,0,57,1.25E-05,94,23,41,307735,218235,23108,16746378,17014,16756992,34067,20801,Tag0,unknown
1.56779E+12,0,-173,-3.80E-05,90,17,41,16753404,19112,2019,797,1316,2754,3024,648,Tag0,unknown
1.56779E+12,0,45,9.89E-06,80,38,45,519454,27090,16747325,4516,12022,7809,16529,4314,Tag0,unknown
1.56779E+12,0,38,8.35E-06,75,50,40,571643,18074,11082,27252,4813,10629,10140,9832,Tag0,unknown
1.56779E+12,0,-103,-2.26E-05,69,44,40,1581202,100137,7325,15425,5790,14443,15837,8735,Tag0,unknown
1.56779E+12,0,-275,-6.04E-05,74,60,40,94313,81158,16762125,16751486,10943,16744645,16764960,29299,Tag0,unknown
1.56779E+12,0,-302,-6.64E-05,64,47,40,816778,206943,18719,24484,9505,11275,16000,8537,Tag0,unknown
1.56779E+12,0,67,1.47E-05,47,24,43,145699,350505,20072,8610,14391,7420,26110,5954,Tag0,unknown
1.56779E+12,0,71,1.56E-05,51,27,43,952497,124613,21400,23995,8563,16745040,16005,8110,Tag0,unknown
1.56779E+12,0,-280,-6.15E-05,38,14,39,98223,132666,13629,8907,1191,7016,13105,7390,Tag0,unknown
1.56779E+12,0,-285,-6.26E-05,37,10,39,731754,119790,12510,5700,8595,7581,31138,8975,Tag0,unknown
1.56779E+12,0,19,4.17E-06,61,21,39,1658892,23105,4604,8340,8788,11672,24579,9827,Tag0,unknown
1.56779E+12,0,121,2.66E-05,54,20,38,1305529,671434,38729,16435,15822,16768569,16760358,16746098,Tag0,unknown
1.56779E+12,0,-100,-2.20E-05,61,26,38,585538,331400,90641,16747872,10202,16757136,16759324,30237,Tag0,unknown
1.56779E+12,0,86,1.89E-05,77,30,38,71810,16757230,7375,2137,4912,13015,9026,9412,Tag0,unknown
1.56779E+12,0,17,3.74E-06,74,37,39,351593,90651,80939,14216,26382,16758324,13992,23927,Tag0,unknown
1.56779E+12,0,-280,-6.15E-05,74,37,38,3352045,1198009,144388,98039,32357,86959,16773720,50436,Tag0,unknown
1.56779E+12,0,68,1.49E-05,78,26,40,2052056,800112,23959,74859,18803,158268,147893,28794,Tag0,unknown
1.56779E+12,0,98,2.15E-05,64,35,39,1291074,612979,277265,16757475,26007,16765117,41313,11685,Tag0,unknown
1.56779E+12,0,64,1.41E-05,70,29,39,193394,21729,6036,7064,5822,17697,6062,7073,Tag0,unknown
1.56779E+12,0,29,6.37E-06,91,37,39,16766166,15849,8667,18328,21071,25016,24308,12469,Tag0,unknown
1.56779E+12,0,-110,-2.42E-05,100,43,39,338428,70057,6425,8662,7800,25321,82043,13411,Tag0,unknown
1.56779E+12,0,22,4.83E-06,100,43,39,338428,70057,6425,8662,7800,25321,82043,13411,Tag0,unknown
1.56779E+12,0,312,6.86E-05,96,41,39,1630063,39583,16916,12268,14316,10735,16748015,7003,Tag0,unknown
1.56779E+12,0,44,9.67E-06,70,30,34,1663892,250797,48151,16769843,13503,81101,16767908,16748329,Tag0,unknown
1.56779E+12,0,-258,-5.67E-05,60,37,41,1646879,215819,7405,69839,16747873,22246,49037,12454,Tag0,unknown
1.56779E+12,0,-282,-6.20E-05,61,35,41,1596624,323738,16757052,16745573,11411,16750282,45346,29992,Tag0,unknown
1.56779E+12,0,54,1.19E-05,61,35,41,1596624,323738,16757052,16745573,11411,16750282,45346,29992,Tag0,unknown
1.56779E+12,0,37,8.13E-06,83,34,40,121779,16760766,10142,4802,6410,20090,15970,3661,Tag0,unknown
timestampMs,poorSignal,eegRawValue,eegRawValueVolts,attention,meditation,blinkStrength,delta,theta,alphaLow,alphaHigh,betaLow,betaHigh,gammaLow,gammaMid,tagEvent,location
1.56779E+12,25,43,9.45E-06,0,0,44,1,2,0,0,0,0,0,0,Tag0,unknown
1.56779E+12,25,873,1.92E-04,0,0,44,44,2,0,0,0,1,1,0,Tag0,unknown
1.56779E+12,0,119,2.61E-05,0,0,36,1376098,17209,16765096,13594,15337,15773,11606,8573,Tag0,unknown
1.56779E+12,0,8,1.76E-06,0,0,36,1548605,274633,11621,27397,16381,30674,30764,7044,Tag0,unknown
1.56779E+12,0,-242,-5.32E-05,0,0,36,143492,27459,909,1570,4634,3563,3017,4137,Tag0,unknown
1.56779E+12,0,49,1.08E-05,44,44,36,1444769,57599,16750427,16767980,18350,31697,23162,12342,Tag0,unknown
1.56779E+12,0,37,8.13E-06,67,44,36,88175,16748076,15192,15447,23781,16774662,18429,7376,Tag0,unknown
1.56779E+12,0,-353,-7.76E-05,77,51,36,348418,41327,91340,16760657,11622,37662,36799,20151,Tag0,unknown
1.56779E+12,0,71,1.56E-05,64,53,42,1761097,104337,18967,16770117,71597,31300,69468,25105,Tag0,unknown
1.56779E+12,0,35,7.69E-06,41,61,42,465729,81748,131764,21584,921,10540,10167,17659,Tag0,unknown
1.56779E+12,0,-268,-5.89E-05,11,53,42,167478,87505,5926,1028,3679,9129,7914,6752,Tag0,unknown
1.56779E+12,0,36,7.91E-06,1,48,38,1759360,170201,16745560,85323,27718,16759343,71409,24940,Tag0,unknown
1.56779E+12,0,65,1.43E-05,34,47,38,554975,75482,20393,13391,29210,78557,26804,22931,Tag0,unknown
1.56779E+12,0,24,5.27E-06,43,29,37,2880178,470054,70105,16745651,83791,16766422,68460,32220,Tag0,unknown
1.56779E+12,0,76,1.67E-05,38,27,54,1767511,149386,4809,2984,8562,10964,13436,3996,Tag0,unknown
1.56779E+12,0,51,1.12E-05,35,27,54,34841,19176,5211,2022,640,3118,3853,2271,Tag0,unknown
1.56779E+12,0,36,7.91E-06,1,30,54,980672,35462,24801,12473,8617,7725,13682,6481,Tag0,unknown
1.56779E+12,0,-264,-5.80E-05,11,29,44,1340358,125140,26204,13658,23979,16767149,76758,16747248,Tag0,unknown
1.56779E+12,0,118,2.59E-05,17,43,36,1658828,410244,16776805,52138,24690,16776636,16771843,16762934,Tag0,unknown
