timestampMs,poorSignal,eegRawValue,eegRawValueVolts,attention,meditation,blinkStrength,delta,theta,alphaLow,alphaHigh,betaLow,betaHigh,gammaLow,gammaMid,tagEvent,location
1.56663E+12,25,9,1.98E-06,0,0,94,659919,16763333,20383,15745,25959,5156,2556,6478,Tag0,unknown
1.56663E+12,0,38,8.35E-06,0,0,54,100160,82804,24353,16747302,13605,12069,5624,3581,Tag0,unknown
1.56663E+12,0,65,1.43E-05,0,0,59,39563,28523,4222,2037,8256,2455,7251,184,Tag0,unknown
1.56663E+12,0,58,1.27E-05,0,0,39,305676,259470,84925,16212,12545,6074,7954,1309,Tag0,unknown
1.56663E+12,0,86,1.89E-05,53,53,41,48752,16746800,3793,16760181,10622,21889,5727,4679,Tag0,unknown
1.56663E+12,0,34,7.47E-06,47,69,41,785870,106990,16765056,58501,18629,6281,6446,3557,Tag0,unknown
1.56663E+12,0,10,2.20E-06,56,70,41,147570,13569,2885,2866,3055,3032,1258,482,Tag0,unknown
1.56663E+12,0,289,6.35E-05,54,90,41,188415,77272,25879,16773628,6631,5636,4014,4785,Tag0,unknown
1.56663E+12,51,-54,-1.19E-05,50,87,41,857065,16767786,14524,20352,5599,5525,3813,3436,Tag0,unknown
1.56663E+12,0,67,1.47E-05,54,93,41,364300,65651,16765430,77887,11354,7054,5021,3566,Tag0,unknown
1.56663E+12,0,-269,-5.91E-05,43,100,41,802818,134992,68447,5954,21780,6366,8004,4881,Tag0,unknown
1.56663E+12,0,-259,-5.69E-05,47,90,41,113747,26680,2983,18989,4323,1993,1335,1140,Tag0,unknown
1.56663E+12,0,-61,-1.34E-05,40,88,127,1141665,318060,137907,57390,26392,16749787,14202,6783,Tag0,unknown
1.56663E+12,0,-289,-6.35E-05,43,80,36,225883,49494,16769601,16774375,6979,14887,9023,4292,Tag0,unknown
1.56663E+12,0,-258,-5.67E-05,53,81,36,860251,91165,31632,31744,10663,15898,12822,7203,Tag0,unknown
1.56663E+12,0,19,4.17E-06,48,94,36,75639,11572,6683,16769443,4507,1903,1036,591,Tag0,unknown
1.56663E+12,0,64,1.41E-05,48,100,36,16746394,16754944,24353,89559,5477,9335,6464,6474,Tag0,unknown
1.56663E+12,0,100,2.20E-05,47,94,36,196894,69730,16746479,16768400,20268,9055,3808,5097,Tag0,unknown
1.56663E+12,0,-120,-2.64E-05,37,100,36,16763174,16752663,31951,202450,16754317,7277,2689,1517,Tag0,unknown
1.56663E+12,0,66,1.45E-05,38,100,36,25141,25802,21508,180591,18586,8781,1626,1816,Tag0,unknown
1.56663E+12,0,33,7.25E-06,38,100,36,13673,22258,8027,16772036,6776,5428,4029,2093,Tag0,unknown
1.56663E+12,0,3,6.59E-07,50,96,36,16759036,16093,17918,5013,15561,9358,8468,1343,Tag0,unknown
1.56663E+12,0,37,8.13E-06,51,77,36,152118,80306,30934,21008,10860,4142,4448,3617,Tag0,unknown
1.56663E+12,0,71,1.56E-05,64,44,36,161862,16759633,11754,2638,6444,12289,3877,1840,Tag0,unknown
1.56663E+12,0,54,1.19E-05,80,30,36,20502,7630,15141,5267,18700,14120,5536,1869,Tag0,unknown
1.56663E+12,0,11,2.42E-06,83,35,36,4818,4133,5751,9173,8448,6754,4704,3101,Tag0,unknown
1.56663E+12,0,19,4.17E-06,97,34,36,16774845,27420,11050,8655,4809,11988,10140,4878,Tag0,unknown
1.56663E+12,0,28,6.15E-06,100,44,36,9376,4815,5153,14724,12492,11220,7665,3903,Tag0,unknown
1.56663E+12,0,97,2.13E-05,93,38,36,441421,92504,30598,8232,23968,15881,6609,4181,Tag0,unknown
1.56663E+12,0,28,6.15E-06,84,26,36,171376,38138,25501,7634,16749680,16042,9519,5568,Tag0,unknown
1.56663E+12,0,-13,-2.86E-06,81,34,39,936448,37525,48126,26096,22116,31323,18714,14075,Tag0,unknown
1.56663E+12,0,61,1.34E-05,66,16,39,2784809,958354,16761712,95818,22694,84063,21807,21943,Tag0,unknown
1.56663E+12,0,-45,-9.89E-06,66,16,43,2784809,958354,16761712,95818,22694,84063,21807,21943,Tag0,unknown
1.56663E+12,0,38,8.35E-06,64,34,42,1150491,16746731,16746628,16051,22040,13727,8223,1504,Tag0,unknown
1.56663E+12,0,-145,-3.19E-05,63,14,41,41839,117833,10894,22262,16748003,24514,5596,9489,Tag0,unknown
1.56663E+12,0,-365,-8.02E-05,69,27,39,358545,94244,16746933,29220,25985,24284,29288,7802,Tag0,unknown
1.56663E+12,0,5,1.10E-06,74,24,37,355556,97551,16748379,6218,11641,14446,5214,2463,Tag0,unknown
1.56663E+12,0,73,1.60E-05,67,27,37,1107333,16756122,16761779,19777,10979,11116,13338,1812,Tag0,unknown
1.56663E+12,0,-276,-6.06E-05,60,35,37,624700,159189,20776,16748435,13529,7749,4154,2348,Tag0,unknown
1.56663E+12,0,60,1.32E-05,63,24,37,229291,163763,24174,25246,20452,73196,19762,9456,Tag0,unknown
1.56663E+12,0,96,2.11E-05,78,20,37,16754187,16749395,11242,7481,26780,16749031,13095,5745,Tag0,unknown
1.56663E+12,0,56,1.23E-05,87,11,37,20752,16752567,18534,17379,25023,17454,12995,6482,Tag0,unknown
1.56663E+12,0,81,1.78E-05,94,13,37,210909,56408,8676,16765473,13744,22148,17050,4638,Tag0,unknown
1.56663E+12,0,59,1.30E-05,97,24,37,51468,23420,11387,28393,21166,28658,24476,10652,Tag0,unknown
1.56663E+12,0,33,7.25E-06,84,34,37,177891,61726,28421,16760797,13813,23072,16562,5357,Tag0,unknown
1.56663E+12,0,75,1.65E-05,91,40,37,3642,11200,17935,10636,3764,22353,17017,7262,Tag0,unknown
1.56663E+12,0,1,2.20E-07,97,38,37,12051,19224,6045,16486,28993,11832,21916,3438,Tag0,unknown
1.56663E+12,0,13,2.86E-06,96,44,37,8460,13846,16752799,11355,12219,26812,20595,7958,Tag0,unknown
1.56663E+12,0,-167,-3.67E-05,100,48,37,25568,10578,24292,14752,26600,26892,15761,6058,Tag0,unknown
1.56663E+12,0,272,5.98E-05,100,30,54,531005,67473,7597,5534,11796,16420,5754,8037,Tag0,unknown
1.56663E+12,0,100,2.20E-05,88,21,54,223489,110276,26725,4286,12464,7969,7108,4563,Tag0,unknown
1.56663E+12,0,58,1.27E-05,87,1,47,473455,171458,6263,9353,16750571,90842,67160,12725,Tag0,unknown
1.56663E+12,0,-291,-6.39E-05,91,1,47,801569,16747238,5460,3721,16760020,16774998,28129,8219,Tag0,unknown
1.56663E+12,0,-71,-1.56E-05,90,1,47,36926,16758165,25010,28396,16746057,26348,18158,7672,Tag0,unknown
1.56663E+12,0,100,2.20E-05,100,11,47,40781,131939,79479,30685,16756870,16772853,16764082,17342,Tag0,unknown
1.56663E+12,0,51,1.12E-05,97,26,47,93233,13560,3638,2205,921,5293,7290,2605,Tag0,unknown
1.56663E+12,0,38,8.35E-06,88,48,47,16749919,31746,6065,16744469,3293,22362,20250,11196,Tag0,unknown
1.56663E+12,0,24,5.27E-06,90,54,47,15024,9594,31543,20195,10467,25004,17585,8931,Tag0,unknown
1.56663E+12,0,-289,-6.35E-05,93,60,47,5003,12500,20121,16163,14948,18152,22668,6642,Tag0,unknown
timestampMs,poorSignal,eegRawValue,eegRawValueVolts,attention,meditation,blinkStrength,delta,theta,alphaLow,alphaHigh,betaLow,betaHigh,gammaLow,gammaMid,tagEvent,location
1.56759E+12,25,-283,-6.22E-05,0,0,55,46,3,0,0,1,0,0,0,Tag0,unknown
1.56759E+12,25,38,8.35E-06,0,0,55,394142,27036,28829,6816,17046,10028,7476,5590,Tag0,unknown
1.56759E+12,0,66,1.45E-05,0,0,55,407517,16759418,222707,16753896,16751443,16748444,16754747,3933,Tag0,unknown
1.56759E+12,0,-337,-7.40E-05,0,0,40,241412,31434,3241,17392,20311,3540,5415,3314,Tag0,unknown
1.56759E+12,0,60,1.32E-05,0,0,40,407610,16764461,21539,16745585,71084,22485,16763446,22081,Tag0,unknown
1.56759E+12,0,49,1.08E-05,30,35,40,968469,78344,19413,16761141,16749393,12021,16295,4270,Tag0,unknown
1.56759E+12,0,45,9.89E-06,34,29,40,1812124,134118,14382,68082,25499,28271,11747,2660,Tag0,unknown
1.56759E+12,0,17,3.74E-06,50,23,40,183517,90829,66736,11178,16751138,16755082,22588,7070,Tag0,unknown
1.56759E+12,0,85,1.87E-05,61,4,40,293803,16753117,3579,4610,7098,9737,3128,2368,Tag0,unknown
1.56759E+12,0,74,1.63E-05,80,4,40,132654,28711,5191,11951,2236,8540,2424,784,Tag0,unknown
1.56759E+12,0,44,9.67E-06,66,11,40,288584,147660,11704,56454,25585,19869,23159,8680,Tag0,unknown
1.56759E+12,0,81,1.78E-05,37,26,40,73054,16763466,85320,16745144,18037,8143,11655,7513,Tag0,unknown
1.56759E+12,0,45,9.89E-06,29,47,40,86799,16775327,25441,16766397,21271,18332,2375,3992,Tag0,unknown
1.56759E+12,0,-283,-6.22E-05,11,57,40,30629,10683,4053,19695,4099,2841,2004,439,Tag0,unknown
1.56759E+12,0,74,1.63E-05,3,67,40,141579,14336,16369,27953,9003,2526,2682,1659,Tag0,unknown
1.56759E+12,0,105,2.31E-05,8,54,40,39410,106449,31166,69432,17792,18400,4649,2131,Tag0,unknown
1.56759E+12,0,52,1.14E-05,20,47,40,16767181,30678,14312,15506,16744924,13736,11516,1999,Tag0,unknown
1.56759E+12,0,-269,-5.91E-05,13,48,40,16753543,29002,16747056,81884,16758646,8859,2543,3634,Tag0,unknown
1.56759E+12,0,21,4.61E-06,27,48,40,15758,11619,14925,83093,16746927,9638,5471,11016,Tag0,unknown
1.56759E+12,0,96,2.11E-05,35,54,40,16766697,16765488,23712,16753993,22655,11847,11348,4020,Tag0,unknown
1.56759E+12,0,20,4.39E-06,16,75,40,27921,27427,16748136,68672,10074,13561,10516,5168,Tag0,unknown
1.56759E+12,0,5,1.10E-06,10,74,40,72414,99659,53549,155921,16748133,15639,9033,1997,Tag0,unknown
1.56759E+12,0,96,2.11E-05,26,57,40,322330,65451,6896,16770623,16749571,27275,20346,3545,Tag0,unknown
1.56759E+12,0,81,1.78E-05,27,60,40,19635,16768832,20436,16767944,5953,12355,12046,4279,Tag0,unknown
1.56759E+12,0,39,8.57E-06,20,60,36,16752957,16213,31363,10613,2078,3209,1766,2629,Tag0,unknown
1.56759E+12,0,52,1.14E-05,53,47,40,2015905,108343,16770524,16774214,23601,69850,16765965,21185,Tag0,unknown
1.56759E+12,0,68,1.49E-05,29,34,40,356481,263140,165,18995,2658,15120,12347,7335,Tag0,unknown
1.56759E+12,0,36,7.91E-06,50,20,40,270654,16767917,8037,13111,16745504,20670,7194,2508,Tag0,unknown
1.56759E+12,0,-364,-8.00E-05,63,16,40,16776698,18878,23435,8702,1961,5928,2388,574,Tag0,unknown
1.56759E+12,0,104,2.29E-05,35,23,40,80056,29418,4573,16865,6971,2250,2570,2333,Tag0,unknown
1.56759E+12,0,105,2.31E-05,40,51,40,278779,57554,83744,62731,13548,25016,22548,6378,Tag0,unknown
1.56759E+12,0,8,1.76E-06,14,74,35,16767492,16760523,32134,33286,17956,12789,9210,1192,Tag0,unknown
1.56759E+12,0,9,1.98E-06,10,70,35,306664,66654,67537,75106,16758585,17407,5557,10167,Tag0,unknown
1.56759E+12,0,64,1.41E-05,40,69,35,1433536,60308,16746451,16769729,21717,16768335,16747761,20065,Tag0,unknown
1.56759E+12,0,64,1.41E-05,41,61,35,878958,45915,7485,71888,18857,15128,15448,8095,Tag0,unknown
1.56759E+12,0,73,1.60E-05,53,54,35,142197,13942,9413,9847,6000,4356,705,923,Tag0,unknown
1.56759E+12,0,40,8.79E-06,41,57,35,151553,83517,16746192,140882,14944,12736,18339,4642,Tag0,unknown
1.56759E+12,0,38,8.35E-06,27,64,35,15797,16775761,29827,16775945,19036,17309,2719,10344,Tag0,unknown
1.56759E+12,0,82,1.80E-05,27,78,35,14206,17053,16754634,16763340,18648,8686,10294,3346,Tag0,unknown
1.56759E+12,0,-294,-6.46E-05,13,90,35,30015,25822,25471,49323,12714,9559,18624,12931,Tag0,unknown
1.56759E+12,0,55,1.21E-05,23,83,35,65691,16775386,21619,16750406,15221,10828,15842,5714,Tag0,unknown
1.56759E+12,0,2,4.39E-07,27,84,35,90925,5745,6290,16950,8969,3971,2098,3121,Tag0,unknown
1.56759E+12,0,28,6.15E-06,37,81,35,151063,22173,6739,72695,17040,13576,14946,16650,Tag0,unknown
1.56759E+12,0,104,2.29E-05,53,77,35,30752,24841,16768256,16753757,15431,16504,10503,6758,Tag0,unknown
1.56759E+12,0,4,8.79E-07,54,75,35,354162,89084,15441,16757223,8169,13531,6245,2283,Tag0,unknown
1.56759E+12,0,76,1.67E-05,47,75,35,76954,30203,30322,16759441,10009,9600,9730,15596,Tag0,unknown
1.56759E+12,0,-117,-2.57E-05,57,69,35,13394,22391,19762,30931,9668,17785,5320,3937,Tag0,unknown
1.56759E+12,0,59,1.30E-05,48,75,35,69493,16748215,15180,62336,11360,14248,8005,6689,Tag0,unknown
1.56759E+12,0,35,7.69E-06,63,84,35,21446,16745355,38586,12050,17099,28646,16750187,16274,Tag0,unknown
1.56759E+12,0,-108,-2.37E-05,81,80,35,17491,16745637,16751043,22132,14519,23738,16756999,8057,Tag0,unknown
1.56759E+12,0,105,2.31E-05,69,78,35,35446,15945,1626,19196,4408,4541,1914,718,Tag0,unknown
1.56759E+12,0,-289,-6.35E-05,54,78,35,274678,16752450,78816,77444,20266,7803,5707,7215,Tag0,unknown
1.56759E+12,0,89,1.96E-05,24,69,35,16747960,97908,12029,16766086,16639,6018,11770,3547,Tag0,unknown
1.56759E+12,0,18,3.96E-06,1,61,35,169390,16756443,8272,13245,7116,4192,1156,2064,Tag0,unknown
1.56759E+12,0,93,2.04E-05,1,51,35,33113,27720,4526,5875,4020,4263,3756,2122,Tag0,unknown
1.56759E+12,0,5,1.10E-06,37,37,40,16762984,32055,5322,19446,5448,17876,8070,8765,Tag0,unknown
1.56759E+12,0,-300,-6.59E-05,61,29,41,16760504,204147,8926,76777,26977,16752963,16759991,16746571,Tag0,unknown
1.56759E+12,0,48,1.05E-05,87,35,41,90195,19248,8421,14643,4493,10987,6525,2804,Tag0,unknown
1.56759E+12,0,66,1.45E-05,80,48,41,154807,83341,38379,16746670,17962,17626,18353,15512,Tag0,unknown
timestampMs,poorSignal,eegRawValue,eegRawValueVolts,attention,meditation,blinkStrength,delta,theta,alphaLow,alphaHigh,betaLow,betaHigh,gammaLow,gammaMid,tagEvent,location
1.56759E+12,25,83,1.82E-05,0,0,41,49,3,0,0,0,2,0,1,Tag0,unknown
1.56759E+12,25,-127,-2.79E-05,0,0,41,316750,16770344,26327,28765,8687,11102,9988,6963,Tag0,unknown
1.56759E+12,0,48,1.05E-05,0,0,41,304415,74449,12374,28375,25341,18518,21951,7894,Tag0,unknown
1.56759E+12,0,-104,-2.29E-05,0,0,41,83508,16748932,9739,15785,11544,9644,3611,2340,Tag0,unknown
1.56759E+12,0,77,1.69E-05,0,0,37,16764624,35463,16746321,40625,21018,25660,12299,2477,Tag0,unknown
1.56759E+12,0,-281,-6.17E-05,30,51,37,260993,42769,16769243,56129,16750352,17737,23825,12261,Tag0,unknown
1.56759E+12,0,45,9.89E-06,47,75,55,1256558,20861,45271,14118,25828,23711,8991,5534,Tag0,unknown
1.56759E+12,0,-41,-9.01E-06,44,63,56,420016,77725,3970,24419,9718,8280,5726,1327,Tag0,unknown
1.56759E+12,0,71,1.56E-05,50,48,56,1159199,70510,7142,13705,4285,9318,8422,3432,Tag0,unknown
1.56759E+12,0,12,2.64E-06,77,29,56,1626588,96019,3804,16767780,16744901,29437,21747,11673,Tag0,unknown
1.56759E+12,0,52,1.14E-05,75,1,56,772695,40190,16746693,16800,24275,23087,16744667,9954,Tag0,unknown
1.56759E+12,0,98,2.15E-05,93,3,56,109093,15208,1787,7179,4581,3951,1232,516,Tag0,unknown
1.56759E+12,0,1,2.20E-07,93,47,56,86693,21554,43648,16769149,16767428,18801,5212,3284,Tag0,unknown
1.56759E+12,0,-64,-1.41E-05,69,44,44,628499,16771427,3173,19100,9605,5411,2101,2307,Tag0,unknown
1.56759E+12,0,33,7.25E-06,53,54,34,2110963,157096,10923,133375,17022,31346,28151,16875,Tag0,unknown
1.56759E+12,0,6,1.32E-06,23,67,34,16772641,16776581,11455,77190,16878,11292,4854,5698,Tag0,unknown
1.56759E+12,0,3,6.59E-07,4,67,34,114740,22364,75944,151643,26537,8154,15181,6714,Tag0,unknown
1.56759E+12,0,50,1.10E-05,16,91,34,53858,15805,81059,16753251,16756497,13335,9584,1996,Tag0,unknown
1.56759E+12,0,2,4.39E-07,3,87,34,16750872,83960,16748016,74049,16760140,8709,3879,2323,Tag0,unknown
1.56759E+12,0,-127,-2.79E-05,34,60,34,93257,16773791,24208,11566,30644,16765255,16747446,9323,Tag0,unknown
1.56759E+12,0,74,1.63E-05,57,37,34,23532,70647,16772110,16756762,16748139,32176,30233,13383,Tag0,unknown
1.56759E+12,0,64,1.41E-05,48,44,34,16760352,16760155,42455,57704,22891,16468,6229,4104,Tag0,unknown
1.56759E+12,0,0,0,70,47,34,379317,17953,6231,27841,6854,12598,5688,3469,Tag0,unknown
1.56759E+12,0,25,5.49E-06,44,69,34,53478,16992,4441,20518,3304,3891,3975,848,Tag0,unknown
1.56759E+12,0,80,1.76E-05,35,80,34,24808,16773177,68699,16763481,10114,16421,6839,5594,Tag0,unknown
1.56759E+12,0,57,1.25E-05,51,53,34,61649,21461,2996,15713,9718,6667,1268,1368,Tag0,unknown
1.56759E+12,0,-306,-6.72E-05,51,30,34,22967,32421,4182,5757,24304,10873,5844,2210,Tag0,unknown
1.56759E+12,0,117,2.57E-05,37,47,34,92424,9175,8816,16752698,3915,2130,1914,205,Tag0,unknown
1.56759E+12,0,48,1.05E-05,21,53,34,38112,16765171,65714,44929,20591,6404,4208,1823,Tag0,unknown
1.56759E+12,0,24,5.27E-06,14,66,34,5275,16755253,15318,16773515,9619,12096,6290,2808,Tag0,unknown
1.56759E+12,0,104,2.29E-05,16,84,34,26051,22637,13943,16753858,16762569,19890,20273,4024,Tag0,unknown
1.56759E+12,0,-280,-6.15E-05,43,66,34,630926,93336,13776,94163,16744370,16747279,21753,12205,Tag0,unknown
1.56759E+12,0,64,1.41E-05,64,48,34,378877,51176,29596,16760497,17721,23521,25307,11618,Tag0,unknown
1.56759E+12,0,52,1.14E-05,78,37,34,727197,16770155,19706,27338,12918,28466,16752594,12164,Tag0,unknown
1.56759E+12,0,26,5.71E-06,74,30,34,16771645,16755823,3999,24003,5884,11681,7005,7403,Tag0,unknown
1.56759E+12,0,66,1.45E-05,75,29,34,15613,16744870,25330,11879,14084,15021,9563,2238,Tag0,unknown
1.56759E+12,0,34,7.47E-06,61,47,34,21090,16751856,16747375,81207,12685,7173,2925,3295,Tag0,unknown
1.56759E+12,0,51,1.12E-05,47,60,34,97086,16776813,71272,16761441,15193,16078,6014,4004,Tag0,unknown
1.56759E+12,0,-259,-5.69E-05,56,66,34,12450,16750843,16751110,28617,30504,16748653,8520,7279,Tag0,unknown
1.56759E+12,0,82,1.80E-05,54,61,34,16749771,31683,16444,16941,16752259,11256,6394,6211,Tag0,unknown
1.56759E+12,0,49,1.08E-05,64,56,34,594124,16758937,7177,92729,18288,14018,4533,3998,Tag0,unknown
1.56759E+12,0,-257,-5.65E-05,63,56,34,42922,10613,3513,23127,6845,3004,3398,1440,Tag0,unknown
1.56759E+12,0,36,7.91E-06,41,64,34,30744,16768900,16748105,77497,19306,13072,9137,2698,Tag0,unknown
1.56759E+12,0,-119,-2.61E-05,38,64,34,3607,65768,16562,24557,21902,15700,9747,3335,Tag0,unknown
1.56759E+12,0,68,1.49E-05,48,63,34,16337,29908,16759131,22266,10243,19932,8906,1810,Tag0,unknown
1.56759E+12,0,26,5.71E-06,47,54,34,38972,20383,1338,18752,5769,2644,1488,2174,Tag0,unknown
1.56759E+12,0,76,1.67E-05,43,56,34,10231,16766541,16767565,16766306,8924,10502,3511,5952,Tag0,unknown
1.56759E+12,0,25,5.49E-06,27,83,34,16738,12077,90121,42443,16746056,10195,3647,2169,Tag0,unknown
1.56759E+12,0,103,2.26E-05,8,96,34,13477,28492,16759055,97326,10030,7484,3097,6944,Tag0,unknown
1.56759E+12,0,1,2.20E-07,26,100,34,16745803,16753840,16425,91615,17753,16752424,3351,2193,Tag0,unknown
1.56759E+12,0,53,1.16E-05,34,100,34,56314,5812,5296,16747363,5600,4544,1661,1077,Tag0,unknown
1.56759E+12,0,70,1.54E-05,38,100,34,535835,16747670,6056,104135,15994,13554,15594,6781,Tag0,unknown
1.56759E+12,0,-280,-6.15E-05,51,81,34,85298,26347,2861,18336,6258,5533,2495,1976,Tag0,unknown
1.56759E+12,0,40,8.79E-06,40,96,34,32077,24106,71507,50234,8017,20601,10187,5107,Tag0,unknown
1.56759E+12,0,25,5.49E-06,53,83,34,16758929,10034,17779,16747693,16747981,16500,6206,9801,Tag0,unknown
1.56759E+12,0,51,1.12E-05,75,64,34,16776951,21967,10155,18020,18441,14564,7952,5662,Tag0,unknown
1.56759E+12,0,48,1.05E-05,63,80,34,68057,13420,8419,94478,28376,6869,9400,1178,Tag0,unknown
1.56759E+12,0,41,9.01E-06,66,56,34,16747323,16748184,10360,16745534,22357,10257,5794,6437,Tag0,unknown
1.56759E+12,0,-307,-6.75E-05,43,66,34,16745215,82732,34188,33783,20303,14355,5503,9447,Tag0,unknown
timestampMs,poorSignal,eegRawValue,eegRawValueVolts,attention,meditation,blinkStrength,delta,theta,alphaLow,alphaHigh,betaLow,betaHigh,gammaLow,gammaMid,tagEvent,location
1.56759E+12,51,780,1.71E-04,0,0,0,1478409,18593,1404,1367,4766,4965,2128,663,Tag0,unknown
1.56759E+12,51,-130,-2.86E-05,0,0,0,877847,11351,1858,1901,177,2052,465,169,Tag0,unknown
1.56759E+12,51,-584,-1.28E-04,0,0,0,2104583,18483,8409,5105,2639,7129,3156,1356,Tag0,unknown
1.56759E+12,51,60,1.32E-05,0,0,0,1335264,28443,16745156,5280,16530,15431,1132,1546,Tag0,unknown
1.56759E+12,51,875,1.92E-04,0,0,0,1243964,103705,7658,65761,15434,9781,10047,461,Tag0,unknown
1.56759E+12,51,-1817,-3.99E-04,0,0,0,1002033,16759157,16761734,16762979,8428,9861,4777,1956,Tag0,unknown
1.56759E+12,51,1791,3.94E-04,0,0,0,339488,19174,10985,8143,4994,2691,748,16777181,Tag0,unknown
1.56759E+12,51,-1125,-2.47E-04,0,0,0,947777,26246,2993,2669,6334,2338,1982,1600,Tag0,unknown
1.56759E+12,25,-332,-7.29E-05,0,0,0,718281,17938,860,9774,493,2048,1647,327,Tag0,unknown
1.56759E+12,26,-23,-5.05E-06,0,0,0,844373,24652,8997,9721,12534,11106,8668,1765,Tag0,unknown
1.56759E+12,26,-853,-1.87E-04,0,0,0,844373,24652,8997,9721,12534,11106,8668,1765,Tag0,unknown
1.56759E+12,0,705,1.55E-04,0,0,0,1020312,21877,12150,1019,3837,2735,2367,1135,Tag0,unknown
1.56759E+12,0,1570,3.45E-04,0,0,0,1020312,21877,12150,1019,3837,2735,2367,1135,Tag0,unknown
1.56759E+12,0,-540,-1.19E-04,0,0,0,2119951,225333,16772276,16767099,16753143,27951,10174,6933,Tag0,unknown
1.56759E+12,0,-393,-8.64E-05,0,0,0,2119951,225333,16772276,16767099,16753143,27951,10174,6933,Tag0,unknown
1.56759E+12,51,-386,-8.48E-05,34,37,0,691767,27794,6994,6488,5552,2586,1090,141,Tag0,unknown
1.56759E+12,26,276,6.06E-05,34,37,0,1393132,16773009,16778,16376,5504,4597,2843,1751,Tag0,unknown
1.56759E+12,0,-151,-3.32E-05,21,1,0,649500,16756863,2921,16754932,19448,6788,13307,5183,Tag0,unknown
1.56759E+12,0,362,7.95E-05,48,1,41,1324053,140073,19253,4833,16748069,19788,9872,4138,Tag0,unknown
1.56759E+12,0,-332,-7.29E-05,43,14,51,137402,16752192,8619,10877,7593,5844,2195,1827,Tag0,unknown
1.56759E+12,0,21,4.61E-06,43,14,51,137402,16752192,8619,10877,7593,5844,2195,1827,Tag0,unknown
1.56759E+12,0,-116,-2.55E-05,41,10,46,664287,1222642,89277,69660,25711,16766758,20955,9572,Tag0,unknown
1.56759E+12,0,-83,-1.82E-05,48,1,40,16772034,12284,2400,1382,2402,2027,1499,337,Tag0,unknown
1.56759E+12,0,-109,-2.40E-05,44,17,40,2399125,50254,31231,16766086,29604,17347,12780,13323,Tag0,unknown
1.56759E+12,0,27,5.93E-06,34,20,71,803666,113093,14884,15875,21937,10634,21460,8759,Tag0,unknown
1.56759E+12,0,34,7.47E-06,34,20,61,803666,113093,14884,15875,21937,10634,21460,8759,Tag0,unknown
1.56759E+12,0,-289,-6.35E-05,34,20,72,803666,113093,14884,15875,21937,10634,21460,8759,Tag0,unknown
1.56759E+12,0,120,2.64E-05,48,26,42,192859,78971,16759522,15403,50291,10650,29006,7143,Tag0,unknown
1.56759E+12,0,80,1.76E-05,48,26,42,192859,78971,16759522,15403,50291,10650,29006,7143,Tag0,unknown
1.56759E+12,0,21,4.61E-06,29,60,42,161073,201357,16752801,21191,16747025,18413,19416,4507,Tag0,unknown
1.56759E+12,0,22,4.83E-06,29,60,42,161073,201357,16752801,21191,16747025,18413,19416,4507,Tag0,unknown
1.56759E+12,0,-125,-2.75E-05,29,60,42,161073,201357,16752801,21191,16747025,18413,19416,4507,Tag0,unknown
1.56759E+12,0,34,7.47E-06,30,51,42,50321,206486,10638,9354,4138,6664,21723,1052,Tag0,unknown
1.56759E+12,0,54,1.19E-05,30,51,42,50321,206486,10638,9354,4138,6664,21723,1052,Tag0,unknown
1.56759E+12,0,-118,-2.59E-05,30,51,41,50321,206486,10638,9354,4138,6664,21723,1052,Tag0,unknown
timestampMs,poorSignal,eegRawValue,eegRawValueVolts,attention,meditation,blinkStrength,delta,theta,alphaLow,alphaHigh,betaLow,betaHigh,gammaLow,gammaMid,tagEvent,location
1.56758E+12,25,-280,-6.15E-05,0,0,37,93198,16756937,18003,5667,9483,6315,3236,4864,Tag0,unknown
1.56758E+12,0,24,5.27E-06,0,0,37,503122,153346,20766,16747,11723,11718,8960,2760,Tag0,unknown
1.56758E+12,0,43,9.45E-06,0,0,37,26316,16751827,4906,71304,9500,4361,8126,4650,Tag0,unknown
1.56758E+12,0,38,8.35E-06,0,0,37,8668,5061,7222,205691,5338,7282,7111,3440,Tag0,unknown
1.56758E+12,0,53,1.16E-05,51,37,37,18895,12818,9580,11848,12869,9598,9712,1772,Tag0,unknown
1.56758E+12,0,50,1.10E-05,61,40,37,13374,11586,2560,16766489,10062,13957,6100,3251,Tag0,unknown
1.56758E+12,0,51,1.12E-05,61,29,37,1094980,228180,31885,24743,12752,21291,25193,11119,Tag0,unknown
1.56758E+12,0,107,2.35E-05,54,38,37,9448,9258,16751591,16757435,3768,3938,7038,5378,Tag0,unknown
1.56758E+12,0,26,5.71E-06,38,44,37,2505,16771081,24109,64356,18794,10770,3215,4744,Tag0,unknown
1.56758E+12,0,-259,-5.69E-05,21,50,37,3371,8883,16760279,93948,17989,5962,3371,995,Tag0,unknown
1.56758E+12,0,-119,-2.61E-05,17,66,37,15167,12771,71770,85490,17006,8984,6826,803,Tag0,unknown
1.56758E+12,0,107,2.35E-05,16,61,37,16767117,74790,16760573,145263,1619,10186,9302,2164,Tag0,unknown
1.56758E+12,0,41,9.01E-06,30,63,37,12004,9911,73965,90398,14203,16751812,2870,1494,Tag0,unknown
1.56758E+12,0,64,1.41E-05,37,60,37,7471,27428,16745126,78937,14280,7850,9015,1947,Tag0,unknown
1.56758E+12,0,12,2.64E-06,44,56,37,3202,11480,7503,82199,12071,11605,2447,3346,Tag0,unknown
1.56758E+12,0,16,3.52E-06,50,56,37,16752972,14290,19749,30360,10608,4084,6458,1279,Tag0,unknown
1.56758E+12,0,44,9.67E-06,34,51,37,11316,16754036,30070,16765771,17214,5910,7533,1804,Tag0,unknown
1.56758E+12,0,89,1.96E-05,35,56,37,13957,9462,24574,140644,13182,10811,1696,1042,Tag0,unknown
1.56758E+12,0,67,1.47E-05,27,63,37,2317,2153,28302,90674,4236,7383,2915,1784,Tag0,unknown
1.56758E+12,0,68,1.49E-05,27,67,37,12059,23729,16770083,16747529,16829,6008,3273,2812,Tag0,unknown
1.56758E+12,0,92,2.02E-05,34,64,37,24738,9565,18070,16763859,7924,7992,5251,4086,Tag0,unknown
1.56758E+12,0,80,1.76E-05,38,57,37,18951,13975,20405,94145,23110,13124,4989,2671,Tag0,unknown
1.56758E+12,0,23,5.05E-06,34,60,37,10407,24869,88595,66196,15911,6411,5074,3670,Tag0,unknown
1.56758E+12,0,68,1.49E-05,38,60,37,21354,6150,18125,43324,16751710,10330,7407,2121,Tag0,unknown
1.56758E+12,0,82,1.80E-05,27,61,37,4488,18077,9109,40103,12987,6267,4012,3024,Tag0,unknown
1.56758E+12,0,70,1.54E-05,29,57,37,16327,31827,16749504,25568,14794,10252,3513,1198,Tag0,unknown
1.56758E+12,0,6,1.32E-06,30,53,37,8347,16746573,30878,16763820,9759,5191,4969,1769,Tag0,unknown
1.56758E+12,0,12,2.64E-06,40,48,37,180153,16752044,31520,16770150,16745114,22304,9593,2609,Tag0,unknown
1.56758E+12,0,49,1.08E-05,44,48,37,10175,27128,16751249,86692,14092,10820,7482,3100,Tag0,unknown
1.56758E+12,0,65,1.43E-05,41,47,37,19899,16773352,14628,78952,7535,13930,3203,2021,Tag0,unknown
1.56758E+12,0,100,2.20E-05,47,47,37,10674,21054,12490,16759341,14427,5717,958,5651,Tag0,unknown
1.56758E+12,0,36,7.91E-06,37,50,37,11088,18834,11259,16765339,5691,5277,3899,1093,Tag0,unknown
1.56758E+12,0,1,2.20E-07,43,50,37,4837,5060,21004,32018,6567,7516,2535,2702,Tag0,unknown
1.56758E+12,0,39,8.57E-06,54,51,37,9488,14691,10056,26326,1213,11221,3285,4303,Tag0,unknown
1.56758E+12,0,59,1.30E-05,63,50,37,9516,15715,14903,18543,8061,7313,2289,2209,Tag0,unknown
1.56758E+12,0,45,9.89E-06,63,44,37,23446,26132,6077,16749839,19169,4430,3094,1803,Tag0,unknown
1.56758E+12,0,28,6.15E-06,64,43,37,3976,25081,16775605,16753868,15533,19623,4959,2285,Tag0,unknown
1.56758E+12,0,27,5.93E-06,63,44,37,7925,9000,8064,25019,2856,7738,9349,470,Tag0,unknown
1.56758E+12,0,17,3.74E-06,56,47,37,11005,16768099,25329,93412,15667,13346,3580,7725,Tag0,unknown
1.56758E+12,0,33,7.25E-06,64,48,37,14060,16753976,25766,16759784,16924,15927,2256,4378,Tag0,unknown
1.56758E+12,0,101,2.22E-05,61,48,37,26823,12045,16759153,16759873,26551,10846,5647,1846,Tag0,unknown
1.56758E+12,0,40,8.79E-06,54,43,37,2735,16750871,25671,31321,7283,10983,9770,1772,Tag0,unknown
1.56758E+12,0,89,1.96E-05,51,37,37,14788,16753566,14529,17749,24033,3789,9631,3820,Tag0,unknown
1.56758E+12,0,75,1.65E-05,44,26,37,41665,69584,4008,9474,14594,6084,2313,1415,Tag0,unknown
1.56758E+12,0,-267,-5.87E-05,40,27,37,10097,7775,16754178,16756980,17831,5701,4137,952,Tag0,unknown
1.56758E+12,0,45,9.89E-06,34,34,37,6898,21426,26036,16773750,13761,6999,1750,1812,Tag0,unknown
1.56758E+12,0,52,1.14E-05,37,47,37,8143,13522,28622,86759,7170,8829,6135,2420,Tag0,unknown
1.56758E+12,0,32,7.03E-06,37,56,37,15919,16757592,8661,16758362,5944,6932,4908,3150,Tag0,unknown
1.56758E+12,0,58,1.27E-05,43,56,37,8239,7141,23190,16754438,11034,9274,2943,4337,Tag0,unknown
1.56758E+12,0,83,1.82E-05,44,56,37,7098,18284,1433,16771032,7829,5450,4533,1798,Tag0,unknown
1.56758E+12,0,40,8.79E-06,48,54,37,8986,13212,22674,78709,10206,11184,5932,6561,Tag0,unknown
1.56758E+12,0,115,2.53E-05,57,57,37,3874,15965,8153,16755892,4645,11892,3172,2463,Tag0,unknown
1.56758E+12,0,29,6.37E-06,64,43,37,23804,16766544,14716,5912,28129,21809,16744712,4309,Tag0,unknown
1.56758E+12,0,58,1.27E-05,64,43,37,23804,16766544,14716,5912,28129,21809,16744712,4309,Tag0,unknown
1.56758E+12,0,115,2.53E-05,83,37,37,5044,20443,8050,16763340,10095,12591,6565,4148,Tag0,unknown
1.56758E+12,0,97,2.13E-05,75,34,37,1498,16752672,18275,26115,7295,7029,5516,3958,Tag0,unknown
1.56758E+12,0,-291,-6.39E-05,70,41,37,14479,16748975,16746002,29764,4841,18032,6248,1951,Tag0,unknown
1.56758E+12,0,101,2.22E-05,67,44,37,853,11738,26434,16752072,6796,13494,20325,7042,Tag0,unknown
1.56758E+12,0,54,1.19E-05,57,53,37,14347,16510,16763718,47575,7090,11407,6084,5299,Tag0,unknown
timestampMs,poorSignal,eegRawValue,eegRawValueVolts,attention,meditation,blinkStrength,delta,theta,alphaLow,alphaHigh,betaLow,betaHigh,gammaLow,gammaMid,tagEvent,location
1.56758E+12,0,-74,-1.63E-05,0,0,40,138021,68926,4601,18508,9523,18258,7555,1842,Tag0,unknown
1.56758E+12,0,91,2.00E-05,0,0,40,517657,16747682,17410,11063,3760,1905,2135,2282,Tag0,unknown
1.56758E+12,0,50,1.10E-05,0,0,40,23909,8990,13490,16769662,9677,6250,6651,3250,Tag0,unknown
1.56758E+12,0,81,1.78E-05,43,48,40,10873,29407,16748551,16774206,13063,10535,14074,3177,Tag0,unknown
1.56758E+12,0,-262,-5.76E-05,44,51,40,54197,35912,16771230,75988,16745514,16676,10725,1799,Tag0,unknown
1.56758E+12,0,25,5.49E-06,51,57,40,4042,20447,14342,16760107,18424,9465,5755,2886,Tag0,unknown
1.56758E+12,0,51,1.12E-05,43,77,40,14388,12025,30684,33499,9044,3563,4195,2113,Tag0,unknown
1.56758E+12,0,35,7.69E-06,47,78,40,4839,11120,18548,16764491,8632,8136,4154,3013,Tag0,unknown
1.56758E+12,0,51,1.12E-05,41,90,40,7870,10961,17177,16773781,8312,4516,5741,5256,Tag0,unknown
1.56758E+12,0,55,1.21E-05,44,90,40,21938,13684,15636,16751561,13206,10225,6926,3465,Tag0,unknown
1.56758E+12,0,49,1.08E-05,66,77,40,14753,17335,20496,25578,18424,12491,11607,3683,Tag0,unknown
1.56758E+12,0,83,1.82E-05,54,83,40,9168,13485,16758033,46725,5693,5716,7835,4938,Tag0,unknown
1.56758E+12,0,89,1.96E-05,67,77,40,13082,12806,13693,16749130,9517,11635,2541,2489,Tag0,unknown
1.56758E+12,0,-128,-2.81E-05,64,81,40,10366,22487,16748512,35480,9711,18347,4878,3338,Tag0,unknown
1.56758E+12,0,-294,-6.46E-05,41,93,40,22940,16745331,84603,82901,12838,4345,4927,1968,Tag0,unknown
1.56758E+12,0,32,7.03E-06,57,83,40,20347,15187,16287,16772242,9057,13800,2846,848,Tag0,unknown
1.56758E+12,0,48,1.05E-05,57,87,40,22398,11371,8071,16773680,7450,13339,3797,2720,Tag0,unknown
1.56758E+12,0,81,1.78E-05,51,81,40,12280,18560,23756,19579,3742,4271,4231,662,Tag0,unknown
1.56758E+12,0,-258,-5.67E-05,64,77,40,11340,16629,10732,16766010,12595,6040,4326,1702,Tag0,unknown
1.56758E+12,0,69,1.52E-05,63,70,40,12615,15579,1183,16765824,16509,8738,3725,5637,Tag0,unknown
1.56758E+12,0,106,2.33E-05,56,75,40,7939,20336,9524,45816,3426,14664,4422,2627,Tag0,unknown
1.56758E+12,0,123,2.70E-05,57,83,40,16744787,8665,16761059,87538,11397,10205,6558,1276,Tag0,unknown
1.56758E+12,0,0,0,66,83,40,7896,12141,22844,16757048,14624,13068,4800,1945,Tag0,unknown
1.56758E+12,0,98,2.15E-05,67,83,40,4268,13810,3760,16774208,28530,10941,2274,6209,Tag0,unknown
1.56758E+12,0,101,2.22E-05,69,81,40,8485,9691,3649,16767424,9025,9166,4484,2155,Tag0,unknown
1.56758E+12,0,55,1.21E-05,70,78,40,734,11807,24897,92530,8913,11873,9595,4686,Tag0,unknown
1.56758E+12,0,19,4.17E-06,70,81,40,9980,14210,12777,85413,8364,16274,5766,2541,Tag0,unknown
1.56758E+12,0,97,2.13E-05,69,78,40,7832,13150,17619,12845,18875,4869,3448,1549,Tag0,unknown
1.56758E+12,0,-269,-5.91E-05,67,81,40,19531,24526,20452,37898,7436,15726,3519,1204,Tag0,unknown
1.56758E+12,0,17,3.74E-06,63,77,40,16760874,22584,21756,67364,13102,6213,6439,1041,Tag0,unknown
1.56758E+12,0,54,1.19E-05,66,69,40,8901,9418,12176,30260,14977,11350,1679,613,Tag0,unknown
1.56758E+12,0,-311,-6.83E-05,81,66,40,10299,16081,7922,13036,6638,17505,10069,5248,Tag0,unknown
1.56758E+12,0,54,1.19E-05,74,56,40,105400,86757,16749529,78866,28578,9218,4836,954,Tag0,unknown
1.56758E+12,0,44,9.67E-06,80,51,40,4132,16749102,5202,84417,23917,13496,2589,2461,Tag0,unknown
1.56758E+12,0,118,2.59E-05,66,53,40,14970,28609,26528,83481,26754,9267,11150,1724,Tag0,unknown
1.56758E+12,0,-282,-6.20E-05,48,66,40,4152,16748099,16745942,131787,15313,17888,6404,1519,Tag0,unknown
1.56758E+12,0,80,1.76E-05,44,80,40,13475,19200,6577,148622,8382,5966,9880,2334,Tag0,unknown
1.56758E+12,0,-291,-6.39E-05,38,93,40,23141,11592,16752143,56838,5581,10914,5778,2183,Tag0,unknown
1.56758E+12,0,49,1.08E-05,44,94,40,9510,18257,13996,16772231,12066,11456,8912,2240,Tag0,unknown
1.56758E+12,0,67,1.47E-05,43,93,40,17598,27107,16770628,16749420,10589,8148,1792,4572,Tag0,unknown
1.56758E+12,0,55,1.21E-05,47,90,40,5685,15590,17993,16770721,8368,4147,6729,2900,Tag0,unknown
1.56758E+12,0,-268,-5.89E-05,50,83,40,15769,11569,16751915,16773918,15617,8898,4036,3199,Tag0,unknown
1.56758E+12,0,-295,-6.48E-05,41,83,40,13869,15327,17834,16756780,17550,4094,5661,1457,Tag0,unknown
1.56758E+12,0,-262,-5.76E-05,56,77,40,6516,7199,9498,15726,7393,9664,3623,2346,Tag0,unknown
1.56758E+12,0,51,1.12E-05,69,74,40,3317,4621,24571,16450,9190,6593,3899,2280,Tag0,unknown
1.56758E+12,0,75,1.65E-05,78,74,40,5493,2843,15294,23233,4951,7260,3123,2106,Tag0,unknown
1.56758E+12,0,60,1.32E-05,88,61,40,19569,30676,15718,9970,21929,7971,4585,1968,Tag0,unknown
1.56758E+12,0,98,2.15E-05,90,60,40,9141,7386,6671,11951,5920,8798,2024,1380,Tag0,unknown
1.56758E+12,0,-273,-6.00E-05,83,57,40,25814,27497,18953,16764793,9613,7695,4474,811,Tag0,unknown
1.56758E+12,0,57,1.25E-05,74,63,40,10596,7929,84097,17414,4638,7218,1871,2129,Tag0,unknown
1.56758E+12,0,-269,-5.91E-05,69,67,40,62081,49702,16759669,16761437,10394,20510,7202,3671,Tag0,unknown
1.56758E+12,0,-259,-5.69E-05,53,63,56,340113,109104,31535,36943,16759721,23690,4915,4317,Tag0,unknown
1.56758E+12,0,29,6.37E-06,56,66,56,16773282,31905,7961,65099,10687,21527,4661,2528,Tag0,unknown
1.56758E+12,0,11,2.42E-06,74,48,56,7511,22438,10315,21676,12086,15326,9506,2614,Tag0,unknown
1.56758E+12,0,45,9.89E-06,81,57,56,5226,4612,21974,17753,2365,9411,6314,3444,Tag0,unknown
1.56758E+12,0,64,1.41E-05,97,61,56,6943,9516,12971,13462,14749,13056,8938,4885,Tag0,unknown
1.56758E+12,0,57,1.25E-05,94,60,56,24633,12332,16749193,7683,7861,5788,10303,4715,Tag0,unknown
1.56758E+12,0,36,7.91E-06,83,50,56,82573,12840,1573,1641,1873,1623,914,1312,Tag0,unknown
1.56758E+12,0,40,8.79E-06,87,30,56,10601,18693,4993,10921,28112,10751,10548,4661,Tag0,unknown
timestampMs,poorSignal,eegRawValue,eegRawValueVolts,attention,meditation,blinkStrength,delta,theta,alphaLow,alphaHigh,betaLow,betaHigh,gammaLow,gammaMid,tagEvent,location
1.56758E+12,0,71,1.56E-05,53,54,62,35733,16745131,16756446,12601,8766,17632,15152,1511,Tag0,unknown
1.56758E+12,0,88,1.93E-05,48,41,39,102993,153312,21683,16747122,20939,9585,8051,5728,Tag0,unknown
1.56758E+12,0,35,7.69E-06,51,64,39,16746795,12437,11003,98029,24862,9986,9180,2217,Tag0,unknown
1.56758E+12,0,58,1.27E-05,66,80,39,23884,19158,28245,16773684,15042,22706,7125,1799,Tag0,unknown
1.56758E+12,0,23,5.05E-06,56,88,39,305054,9858,5391,16762132,5572,6964,12795,3561,Tag0,unknown
1.56758E+12,0,12,2.64E-06,63,100,39,146243,7197,4609,13603,498,1696,1016,311,Tag0,unknown
1.56758E+12,0,91,2.00E-05,66,87,39,16765738,74668,26312,15572,14165,12434,8710,5950,Tag0,unknown
1.56758E+12,0,-278,-6.11E-05,54,61,39,22629,16775051,16347,13359,7061,8025,2315,945,Tag0,unknown
1.56758E+12,0,84,1.85E-05,48,60,39,17230,16923,16771491,24110,14126,5936,7794,2570,Tag0,unknown
1.56758E+12,0,28,6.15E-06,53,47,39,8154,12476,3315,19212,9184,4043,2470,3234,Tag0,unknown
1.56758E+12,0,17,3.74E-06,57,60,39,21238,19892,13704,19794,13585,8052,1556,1814,Tag0,unknown
1.56758E+12,0,41,9.01E-06,51,70,39,545074,16771003,26532,28464,9151,6470,1449,931,Tag0,unknown
1.56758E+12,0,69,1.52E-05,61,30,56,86986,28678,2608,6167,10864,3982,1426,305,Tag0,unknown
1.56758E+12,0,52,1.14E-05,74,17,56,28066,13759,4377,18036,28417,10851,11315,3866,Tag0,unknown
1.56758E+12,0,-300,-6.59E-05,56,37,56,14610,7305,16745942,16775150,12059,4339,8083,3053,Tag0,unknown
1.56758E+12,0,101,2.22E-05,63,43,56,13661,21124,32483,16775365,16747680,9116,5466,1202,Tag0,unknown
1.56758E+12,0,50,1.10E-05,56,84,56,19013,18287,16772898,84166,2358,12533,2976,2410,Tag0,unknown
1.56758E+12,0,55,1.21E-05,40,100,56,17958,32608,9512,16773883,5305,7855,4767,4890,Tag0,unknown
1.56758E+12,0,93,2.04E-05,53,69,56,80873,88405,11011,16749991,13518,15642,6579,1164,Tag0,unknown
1.56758E+12,0,71,1.56E-05,60,70,56,16757116,16747545,7334,88684,7161,20194,6330,2222,Tag0,unknown
1.56758E+12,0,59,1.30E-05,66,67,56,9272,25246,24324,110466,9188,26555,5761,1506,Tag0,unknown
1.56758E+12,0,-314,-6.90E-05,66,80,56,9035,16544,16774773,74488,9254,13191,6121,1648,Tag0,unknown
1.56758E+12,0,73,1.60E-05,48,100,56,15540,15443,28305,133666,4454,4505,12141,2033,Tag0,unknown
1.56758E+12,0,109,2.40E-05,30,100,56,25527,23560,16748645,264394,2752,12444,4088,4414,Tag0,unknown
1.56758E+12,0,40,8.79E-06,11,100,56,75421,7369,18000,30195,3271,1563,1549,799,Tag0,unknown
1.56758E+12,0,32,7.03E-06,26,94,56,23677,24390,11461,22861,8688,15597,3131,1545,Tag0,unknown
1.56758E+12,0,-266,-5.84E-05,41,84,56,12660,5748,9511,71654,12640,7276,7376,1707,Tag0,unknown
1.56758E+12,0,73,1.60E-05,51,54,56,11414,30045,6230,22573,16658,4562,5029,2377,Tag0,unknown
1.56758E+12,0,45,9.89E-06,74,48,56,4788,11709,23369,16759231,7889,11584,8094,3327,Tag0,unknown
1.56758E+12,0,21,4.61E-06,66,51,56,26838,13707,15257,9330,6602,6050,4726,2981,Tag0,unknown
1.56758E+12,0,97,2.13E-05,63,43,56,119491,16765204,16539,47804,16616,12206,9039,2286,Tag0,unknown
1.56758E+12,0,56,1.23E-05,60,61,56,85498,2967,14946,21264,5603,2594,932,1150,Tag0,unknown
1.56758E+12,0,41,9.01E-06,43,51,56,214053,90713,16764266,91308,16763900,8416,6469,4533,Tag0,unknown
1.56758E+12,0,18,3.96E-06,40,64,56,16747376,14675,16765363,90055,20661,20651,7911,2555,Tag0,unknown
1.56758E+12,0,29,6.37E-06,34,66,56,2706,32636,16763764,66186,19831,6347,5872,2541,Tag0,unknown
1.56758E+12,0,33,7.25E-06,41,53,56,8680,21739,5019,16753586,19695,8196,3947,5055,Tag0,unknown
1.56758E+12,0,36,7.91E-06,61,56,56,10763,27876,21973,16766185,19878,15958,2902,881,Tag0,unknown
1.56758E+12,0,18,3.96E-06,61,47,56,23326,22369,2389,16753220,4287,9312,6933,3419,Tag0,unknown
1.56758E+12,0,51,1.12E-05,83,29,56,10859,17859,9735,6093,10880,7439,4707,2739,Tag0,unknown
1.56758E+12,0,48,1.05E-05,84,40,56,16747389,7131,5057,16747084,4472,6824,3942,2349,Tag0,unknown
1.56758E+12,0,3,6.59E-07,84,37,56,16749595,27284,16748088,12677,10578,12062,4674,3606,Tag0,unknown
1.56758E+12,0,55,1.21E-05,77,40,56,6496,16745446,20881,16762064,6706,7333,2921,1584,Tag0,unknown
1.56758E+12,0,23,5.05E-06,75,53,56,7671,15543,5761,16770048,14702,13244,9119,3167,Tag0,unknown
1.56758E+12,0,24,5.27E-06,63,53,56,14090,27764,22156,16766326,7945,6919,4889,953,Tag0,unknown
1.56758E+12,0,16,3.52E-06,40,74,56,13699,15608,6548,209377,13539,5887,4291,978,Tag0,unknown
1.56758E+12,0,98,2.15E-05,44,77,56,8653,16692,12997,75867,13559,10528,7458,2592,Tag0,unknown
1.56758E+12,0,41,9.01E-06,27,81,56,30941,16750655,32259,39135,9242,9601,3258,2699,Tag0,unknown
1.56758E+12,0,-268,-5.89E-05,24,78,56,12113,16750234,23308,16753420,3895,5237,958,1177,Tag0,unknown
1.56758E+12,0,58,1.27E-05,48,54,56,4262,27320,17895,11001,8126,7285,2482,2892,Tag0,unknown
1.56758E+12,0,53,1.16E-05,50,50,56,2600,18425,15797,17058,3560,5852,6171,1324,Tag0,unknown
1.56758E+12,0,29,6.37E-06,61,54,56,12003,10859,16749569,88043,5612,19124,2841,2689,Tag0,unknown
1.56758E+12,0,70,1.54E-05,63,57,56,6301,9688,2128,16761533,13634,3808,2657,4152,Tag0,unknown
1.56758E+12,0,13,2.86E-06,74,64,56,4790,11188,16108,16336,2985,11477,6819,4467,Tag0,unknown
1.56758E+12,0,-290,-6.37E-05,61,80,56,5095,10655,16755456,16771589,4608,5351,1664,2237,Tag0,unknown
1.56758E+12,0,116,2.55E-05,54,78,56,6771,16654,16744655,73152,6273,12011,3705,4958,Tag0,unknown
1.56758E+12,0,91,2.00E-05,50,88,56,10543,16281,26473,144304,11768,7480,2121,1446,Tag0,unknown
1.56758E+12,0,-273,-6.00E-05,34,93,56,6196,21152,3777,78861,9204,8047,1826,3628,Tag0,unknown
1.56758E+12,0,106,2.33E-05,30,87,56,11840,16765873,12801,126150,9153,10889,1971,2750,Tag0,unknown
1.56758E+12,0,50,1.10E-05,26,83,56,10164,30415,8077,35101,12947,8889,6835,1562,Tag0,unknown
timestampMs,poorSignal,eegRawValue,eegRawValueVolts,attention,meditation,blinkStrength,delta,theta,alphaLow,alphaHigh,betaLow,betaHigh,gammaLow,gammaMid,tagEvent,location
1.56758E+12,25,-260,-5.71E-05,0,0,35,308048,156072,16776437,16759862,29656,16747409,27556,17698,Tag0,unknown
1.56758E+12,0,99,2.18E-05,0,0,35,439365,25836,10502,16756050,10787,10176,4636,8638,Tag0,unknown
1.56758E+12,0,32,7.03E-06,0,0,35,14377,16750827,9209,19237,21147,7187,6630,1953,Tag0,unknown
1.56758E+12,0,86,1.89E-05,0,0,35,19041,13408,16772748,61587,15723,8703,8647,3047,Tag0,unknown
1.56758E+12,0,21,4.61E-06,48,30,35,214569,16755834,7676,6811,4910,6462,2995,5360,Tag0,unknown
1.56758E+12,0,32,7.03E-06,61,34,35,238744,24075,16747949,12109,10963,8968,6799,2411,Tag0,unknown
1.56758E+12,0,72,1.58E-05,69,38,35,14166,27344,5514,16772490,12202,9188,7214,4579,Tag0,unknown
1.56758E+12,0,-258,-5.67E-05,78,47,35,5932,25130,29076,37838,16484,14900,8887,2746,Tag0,unknown
1.56758E+12,0,21,4.61E-06,74,64,35,4111,6519,21419,16776874,15692,7302,6379,4729,Tag0,unknown
1.56758E+12,0,72,1.58E-05,80,61,35,1702,24906,14455,15136,7519,9293,9483,2166,Tag0,unknown
1.56758E+12,0,69,1.52E-05,74,64,35,8451,11551,10827,16768942,13148,5515,6978,8747,Tag0,unknown
1.56758E+12,0,42,9.23E-06,75,60,35,15100,29779,3997,16759634,5659,8460,23452,2947,Tag0,unknown
1.56758E+12,0,34,7.47E-06,70,48,35,60797,16197,7038,7668,2691,1937,2623,797,Tag0,unknown
1.56758E+12,0,66,1.45E-05,66,48,35,3917,25079,4540,24455,20481,7042,8551,2003,Tag0,unknown
1.56758E+12,0,0,0,83,47,35,5025,7922,10738,76305,18739,15608,5067,4078,Tag0,unknown
1.56758E+12,0,88,1.93E-05,83,56,35,7510,11317,16752103,91321,5847,14292,5005,5402,Tag0,unknown
1.56758E+12,0,57,1.25E-05,88,63,35,25185,17826,3764,16772107,6300,7325,8406,3815,Tag0,unknown
1.56758E+12,0,-267,-5.87E-05,66,75,35,412324,16746019,15121,48938,10524,7526,7584,1432,Tag0,unknown
1.56758E+12,0,60,1.32E-05,67,74,35,24813,19477,21565,16766378,13850,16595,3056,4460,Tag0,unknown
1.56758E+12,0,52,1.14E-05,67,63,35,12303,28709,32144,16756078,22901,11067,2177,1810,Tag0,unknown
1.56758E+12,0,59,1.30E-05,81,57,35,8931,21192,13700,32525,4193,12258,16167,10875,Tag0,unknown
1.56758E+12,0,20,4.39E-06,100,44,35,10211,13698,5362,20766,31859,12176,9636,3439,Tag0,unknown
1.56758E+12,0,41,9.01E-06,88,48,35,4765,15452,6324,76177,12358,6137,5485,1436,Tag0,unknown
1.56758E+12,0,87,1.91E-05,54,60,35,5656,16752352,16753952,73029,7674,9662,5665,3510,Tag0,unknown
1.56758E+12,0,90,1.98E-05,40,69,35,9956,25306,5301,16774023,7013,12922,7028,2235,Tag0,unknown
1.56758E+12,0,39,8.57E-06,54,66,35,16357,17493,16746651,16766441,19578,16243,5728,2253,Tag0,unknown
1.56758E+12,0,53,1.16E-05,57,57,35,27270,16744863,20105,30831,7569,7441,3617,1102,Tag0,unknown
1.56758E+12,0,3,6.59E-07,70,60,35,3833,6625,12434,16756904,10647,7867,2521,2587,Tag0,unknown
1.56758E+12,0,24,5.27E-06,69,54,35,2471,26836,26010,22455,25026,9911,4479,2458,Tag0,unknown
1.56758E+12,0,28,6.15E-06,61,48,35,5966,16758578,17624,28220,13627,8930,7061,4729,Tag0,unknown
1.56758E+12,0,92,2.02E-05,75,53,35,16110,4045,27771,19490,3005,9953,7510,4789,Tag0,unknown
1.56758E+12,0,19,4.17E-06,78,50,35,13236,16659,30645,24148,5781,10650,1673,4352,Tag0,unknown
1.56758E+12,0,41,9.01E-06,69,63,35,12140,4542,9619,42939,11764,9646,4911,2135,Tag0,unknown
1.56758E+12,0,57,1.25E-05,70,57,35,2138,30265,3812,11287,8581,5179,4435,2312,Tag0,unknown
1.56758E+12,0,50,1.10E-05,43,54,35,9911,16748975,23318,68948,6288,4815,2656,2955,Tag0,unknown
1.56758E+12,0,-262,-5.76E-05,29,54,35,3783,13662,19127,29496,6886,4120,3483,4033,Tag0,unknown
1.56758E+12,0,52,1.14E-05,44,44,35,8988,17135,11700,19852,3346,8278,3273,1932,Tag0,unknown
1.56758E+12,0,9,1.98E-06,38,63,35,3891,6058,15713,16770814,4229,5654,13523,1645,Tag0,unknown
1.56758E+12,0,83,1.82E-05,51,66,35,6614,6473,16747908,16762534,15755,7232,7068,2627,Tag0,unknown
1.56758E+12,0,44,9.67E-06,70,66,35,3286,9117,16612,16761903,15082,16758,13937,2458,Tag0,unknown
1.56758E+12,0,16,3.52E-06,63,74,35,3802,8914,12942,16769393,8342,7705,11703,3409,Tag0,unknown
1.56758E+12,0,16,3.52E-06,87,61,35,3832,10274,1113,21723,9223,9655,8680,3215,Tag0,unknown
1.56758E+12,0,85,1.87E-05,100,54,35,7087,15631,3128,16756503,5525,13702,3266,3438,Tag0,unknown
1.56758E+12,0,99,2.18E-05,96,54,35,6708,5085,5395,16749754,10284,7140,2131,2737,Tag0,unknown
1.56758E+12,0,33,7.25E-06,87,56,35,13173,6785,20355,16760590,9717,4406,8029,10424,Tag0,unknown
1.56758E+12,0,59,1.30E-05,74,61,35,17016,15765,25870,19347,5828,7583,3994,3225,Tag0,unknown
1.56758E+12,0,57,1.25E-05,53,70,35,2449,9195,16749986,132733,15376,12253,7802,4190,Tag0,unknown
1.56758E+12,0,59,1.30E-05,41,78,35,5465,9716,12784,159668,11806,14877,6924,3307,Tag0,unknown
1.56758E+12,0,55,1.21E-05,38,83,35,5241,9795,45724,16772541,9416,8849,7086,1898,Tag0,unknown
1.56758E+12,0,40,8.79E-06,34,83,35,4449,24725,16752074,12461,7993,7244,5439,3494,Tag0,unknown
1.56758E+12,0,97,2.13E-05,34,77,35,3005,24096,16757133,29897,8572,7023,6709,1863,Tag0,unknown
1.56758E+12,0,39,8.57E-06,29,48,35,1820283,435366,16761056,14199,12475,16748241,12893,12520,Tag0,unknown
1.56758E+12,0,-282,-6.20E-05,43,35,35,38347,10334,10559,7095,4887,2724,1469,1062,Tag0,unknown
1.56758E+12,0,40,8.79E-06,23,35,35,2566,16764156,23653,95163,17126,5017,2959,3938,Tag0,unknown
1.56758E+12,0,24,5.27E-06,34,30,35,2133,12010,8541,19902,8815,5481,2504,4420,Tag0,unknown
1.56758E+12,0,19,4.17E-06,30,60,35,6136,9296,5506,39422,8377,6303,5556,2036,Tag0,unknown
1.56758E+12,0,69,1.52E-05,34,63,35,17225,16259,11477,16758477,14363,9612,3661,4360,Tag0,unknown
1.56758E+12,0,21,4.61E-06,35,67,35,9829,22064,16751256,44040,26827,5927,7335,2519,Tag0,unknown
1.56758E+12,0,5,1.10E-06,37,69,35,12912,13145,17440,26120,6431,7422,2835,717,Tag0,unknown
timestampMs,poorSignal,eegRawValue,eegRawValueVolts,attention,meditation,blinkStrength,delta,theta,alphaLow,alphaHigh,betaLow,betaHigh,gammaLow,gammaMid,tagEvent,location
1.56758E+12,0,39,8.57E-06,0,0,40,2584,4791,8462,13466,12241,6419,3392,2301,Tag0,unknown
1.56758E+12,0,-296,-6.50E-05,0,0,40,60428,26943,16802,16745149,13195,8225,18090,4078,Tag0,unknown
1.56758E+12,0,29,6.37E-06,0,0,40,16759714,28288,15683,16762131,10484,10425,8462,4689,Tag0,unknown
1.56758E+12,0,-106,-2.33E-05,30,51,40,7952,18093,16772470,151822,12909,6472,6839,2118,Tag0,unknown
1.56758E+12,0,43,9.45E-06,38,56,40,12240,12487,16748653,30831,5108,13100,3688,1755,Tag0,unknown
1.56758E+12,0,-302,-6.64E-05,35,60,40,3087,22991,7038,93566,14010,6036,3688,2238,Tag0,unknown
1.56758E+12,0,25,5.49E-06,44,53,40,9773,24367,12546,137192,14480,11822,7960,9138,Tag0,unknown
1.56758E+12,0,41,9.01E-06,53,34,40,97452,70631,4461,3601,8237,6651,9843,2329,Tag0,unknown
1.56758E+12,0,-321,-7.05E-05,44,21,62,241843,267332,82679,28016,74729,27125,13309,4885,Tag0,unknown
1.56758E+12,0,40,8.79E-06,51,14,62,67459,69284,30800,18643,18887,10808,6446,15079,Tag0,unknown
1.56758E+12,0,60,1.32E-05,61,14,62,31501,8737,10991,30373,3894,8552,7012,3532,Tag0,unknown
1.56758E+12,0,-127,-2.79E-05,69,34,62,5437,7974,15759,22626,26999,10304,8177,7853,Tag0,unknown
1.56758E+12,0,81,1.78E-05,67,56,62,8806,12614,22964,59786,10848,9453,8802,2110,Tag0,unknown
1.56758E+12,0,55,1.21E-05,67,74,62,9968,8949,20412,73489,6438,9071,2146,3625,Tag0,unknown
1.56758E+12,0,64,1.41E-05,57,74,62,15936,20068,16990,86104,28187,8082,5074,3928,Tag0,unknown
1.56758E+12,0,-258,-5.67E-05,50,87,62,7682,16167,3534,145289,3593,14705,1491,2011,Tag0,unknown
1.56758E+12,0,58,1.27E-05,56,84,62,10417,20554,12970,58692,6359,18721,4939,1999,Tag0,unknown
1.56758E+12,0,3,6.59E-07,51,88,62,6598,11618,24839,133359,6371,9947,7251,2890,Tag0,unknown
1.56758E+12,0,74,1.63E-05,50,94,62,6591,20049,23154,51712,5680,8126,4862,4299,Tag0,unknown
1.56758E+12,0,48,1.05E-05,47,78,62,15557,68112,13130,16759436,7372,8679,5304,5485,Tag0,unknown
1.56758E+12,0,81,1.78E-05,51,63,62,10668,32478,9555,19690,12266,12649,9775,1515,Tag0,unknown
1.56758E+12,0,68,1.49E-05,63,53,62,6413,8324,30766,20773,6197,12137,5659,1629,Tag0,unknown
1.56758E+12,0,69,1.52E-05,66,47,62,4203,13310,19262,24715,6507,3993,2739,1514,Tag0,unknown
1.56758E+12,0,112,2.46E-05,70,48,62,13168,16748732,2284,16770314,18630,10344,4055,4380,Tag0,unknown
1.56758E+12,0,2,4.39E-07,61,64,62,6461,22661,16770513,94340,9624,12537,6242,2522,Tag0,unknown
1.56758E+12,0,60,1.32E-05,44,77,62,4013,6347,16764418,78500,10179,5393,3653,2559,Tag0,unknown
1.56758E+12,0,12,2.64E-06,48,67,62,2158,29112,4048,16761143,16748634,8085,2900,1821,Tag0,unknown
1.56758E+12,0,28,6.15E-06,50,75,62,2746,15061,30355,16769605,17017,11804,3452,3171,Tag0,unknown
1.56758E+12,0,113,2.48E-05,47,77,62,28135,21897,16747271,137799,9801,10375,4248,2243,Tag0,unknown
1.56758E+12,0,72,1.58E-05,53,75,62,5412,20371,16753421,124683,8042,17488,3093,924,Tag0,unknown
1.56758E+12,0,-283,-6.22E-05,43,87,62,7615,16755644,25908,103133,6401,10338,2677,4192,Tag0,unknown
1.56758E+12,0,58,1.27E-05,29,94,62,790,18620,79519,85233,9800,4724,9216,1240,Tag0,unknown
1.56758E+12,0,77,1.69E-05,26,88,62,21392,16749124,16754099,68431,10940,6728,4999,1798,Tag0,unknown
1.56758E+12,0,7,1.54E-06,29,81,62,3019,24474,16748029,77160,15041,12510,6633,4446,Tag0,unknown
1.56758E+12,0,48,1.05E-05,40,81,62,6523,21591,16769613,146963,9771,26493,5214,710,Tag0,unknown
1.56758E+12,0,19,4.17E-06,44,84,62,14258,9872,14985,138593,7329,7103,4978,2405,Tag0,unknown
1.56758E+12,0,6,1.32E-06,47,90,62,3910,14055,16774582,77353,11636,8364,3341,1017,Tag0,unknown
1.56758E+12,0,71,1.56E-05,48,88,62,6158,16797,24432,16752894,12549,7861,3590,4261,Tag0,unknown
1.56758E+12,0,18,3.96E-06,44,81,62,11453,15837,27091,27441,10829,6055,4349,1394,Tag0,unknown
1.56758E+12,0,16,3.52E-06,51,64,62,16761217,25547,3863,16761845,31482,6328,6991,5658,Tag0,unknown
1.56758E+12,0,39,8.57E-06,67,47,62,16178,16746822,9760,23170,10004,21068,4693,1347,Tag0,unknown
1.56758E+12,0,69,1.52E-05,64,51,62,1905,14145,23735,89944,11452,8186,5206,2941,Tag0,unknown
1.56758E+12,0,58,1.27E-05,54,61,62,9096,8577,11317,132930,11815,5299,5137,2072,Tag0,unknown
1.56758E+12,0,18,3.96E-06,54,64,62,6908,68057,16746222,71364,14612,14648,3802,1382,Tag0,unknown
1.56758E+12,0,119,2.61E-05,54,74,62,7777,5565,723,16755272,9045,14016,2432,2313,Tag0,unknown
1.56758E+12,0,25,5.49E-06,56,64,62,472861,16760065,9661,78720,12450,10130,3213,1425,Tag0,unknown
1.56758E+12,0,58,1.27E-05,70,54,62,12332,14572,16902,16751096,5446,12006,4429,3070,Tag0,unknown
1.56758E+12,0,44,9.67E-06,61,64,62,13002,18121,26358,45613,16032,5209,5464,1096,Tag0,unknown
1.56758E+12,0,38,8.35E-06,56,63,62,2945,17270,14124,22965,6656,8892,4468,2662,Tag0,unknown
1.56758E+12,0,86,1.89E-05,48,67,62,25299,16755471,82860,16751802,11762,5459,2883,897,Tag0,unknown
1.56758E+12,0,60,1.32E-05,30,75,62,8527,16347,16772505,16770006,12449,4772,3846,3298,Tag0,unknown
1.56758E+12,0,8,1.76E-06,50,64,62,10879,13948,17836,19119,10987,9158,2918,2974,Tag0,unknown
1.56758E+12,0,35,7.69E-06,37,75,62,2305,13869,16746594,16761731,4338,4129,3539,1762,Tag0,unknown
1.56758E+12,0,28,6.15E-06,37,75,62,2305,13869,16746594,16761731,4338,4129,3539,1762,Tag0,unknown
1.56758E+12,0,25,5.49E-06,50,74,62,6835,10138,15233,25179,5682,5591,3670,2374,Tag0,unknown
1.56758E+12,0,6,1.32E-06,50,74,62,6835,10138,15233,25179,5682,5591,3670,2374,Tag0,unknown
1.56758E+12,0,-122,-2.68E-05,66,48,62,3848,22631,11891,79731,10189,14415,2780,1879,Tag0,unknown
1.56758E+12,0,76,1.67E-05,54,56,62,4830,8127,16758088,16748537,5826,2985,6270,1825,Tag0,unknown
1.56758E+12,0,22,4.83E-06,53,78,62,7426,8622,16762369,16760038,9654,10674,2206,2366,Tag0,unknown
timestampMs,poorSignal,eegRawValue,eegRawValueVolts,attention,meditation,blinkStrength,delta,theta,alphaLow,alphaHigh,betaLow,betaHigh,gammaLow,gammaMid,tagEvent,location
1.56758E+12,0,103,2.26E-05,51,27,47,424544,16773277,3879,11942,21865,8667,11384,8531,Tag0,unknown
1.56758E+12,0,37,8.13E-06,61,41,47,100356,7607,11322,3324,3263,1190,1989,644,Tag0,unknown
1.56758E+12,0,58,1.27E-05,61,35,47,25480,22143,15267,23723,8725,7820,11709,5318,Tag0,unknown
1.56758E+12,0,70,1.54E-05,57,37,47,94095,8214,4950,9156,1922,1965,1122,586,Tag0,unknown
1.56758E+12,0,54,1.19E-05,53,61,47,4247,23844,16757181,88559,9672,9792,7842,2817,Tag0,unknown
1.56758E+12,0,25,5.49E-06,57,64,47,7658,12880,11339,16748151,7879,6632,4203,2325,Tag0,unknown
1.56758E+12,0,37,8.13E-06,61,43,47,66979,9669,4437,6102,1651,2030,2375,820,Tag0,unknown
1.56758E+12,0,25,5.49E-06,60,50,47,14890,17809,9172,53516,9807,12494,4732,2771,Tag0,unknown
1.56758E+12,0,42,9.23E-06,53,69,47,5270,21224,5667,54321,10312,6486,5324,2667,Tag0,unknown
1.56758E+12,0,64,1.41E-05,53,69,47,5270,21224,5667,54321,10312,6486,5324,2667,Tag0,unknown
1.56758E+12,0,38,8.35E-06,40,48,47,617965,208613,8527,19791,30799,8108,23042,4326,Tag0,unknown
1.56758E+12,0,11,2.42E-06,47,41,47,1484,16747754,18976,16773855,5713,9424,7529,2527,Tag0,unknown
1.56758E+12,0,66,1.45E-05,57,38,47,2575,7685,2790,19312,8694,9011,5211,1578,Tag0,unknown
1.56758E+12,0,90,1.98E-05,67,66,47,11817,9249,19184,16754686,8212,8035,5862,1408,Tag0,unknown
1.56758E+12,0,71,1.56E-05,61,77,47,9009,12773,15741,91002,9870,18811,4434,3358,Tag0,unknown
1.56758E+12,0,40,8.79E-06,66,77,47,3975,7570,12672,69908,14712,10169,5377,4460,Tag0,unknown
1.56758E+12,0,37,8.13E-06,61,78,47,10267,11196,4372,11690,7806,13178,6416,4764,Tag0,unknown
1.56758E+12,0,54,1.19E-05,60,67,47,10428,16749358,28943,12396,10089,7677,7442,4352,Tag0,unknown
1.56758E+12,0,88,1.93E-05,66,57,47,15052,18974,5259,16762481,25803,11045,6794,6385,Tag0,unknown
1.56758E+12,0,57,1.25E-05,78,29,47,7620,16762652,22694,82823,15887,18799,7772,502,Tag0,unknown
1.56758E+12,0,67,1.47E-05,64,50,47,10273,9422,10735,34739,18302,16931,4463,2402,Tag0,unknown
1.56758E+12,0,-284,-6.24E-05,64,50,47,10273,9422,10735,34739,18302,16931,4463,2402,Tag0,unknown
1.56758E+12,0,19,4.17E-06,64,50,47,10273,9422,10735,34739,18302,16931,4463,2402,Tag0,unknown
1.56758E+12,0,40,8.79E-06,41,87,47,3489,16115,16763292,154761,11342,13595,2213,2610,Tag0,unknown
1.56758E+12,0,74,1.63E-05,43,90,47,5968,16744963,73332,75418,7071,13213,3376,2447,Tag0,unknown
1.56758E+12,0,6,1.32E-06,43,90,47,5968,16744963,73332,75418,7071,13213,3376,2447,Tag0,unknown
1.56758E+12,0,25,5.49E-06,48,84,47,2024,16317,27293,19103,5278,6777,9253,1749,Tag0,unknown
1.56758E+12,0,97,2.13E-05,44,77,47,15629,11939,20557,74707,8390,6163,1741,4425,Tag0,unknown
1.56758E+12,0,40,8.79E-06,50,80,47,665,11589,28787,96465,18015,7245,3547,2463,Tag0,unknown
1.56758E+12,0,28,6.15E-06,50,80,47,665,11589,28787,96465,18015,7245,3547,2463,Tag0,unknown
1.56758E+12,0,44,9.67E-06,35,74,47,15113,17621,31705,133579,13222,13519,2470,2438,Tag0,unknown
1.56758E+12,0,37,8.13E-06,35,84,47,8408,12694,22351,141157,4077,9321,8062,2060,Tag0,unknown
1.56758E+12,0,41,9.01E-06,35,84,47,8408,12694,22351,141157,4077,9321,8062,2060,Tag0,unknown
1.56758E+12,0,67,1.47E-05,38,70,47,8087,13815,15859,16774257,7922,7429,9228,7215,Tag0,unknown
1.56758E+12,0,75,1.65E-05,38,70,47,8087,13815,15859,16774257,7922,7429,9228,7215,Tag0,unknown
1.56758E+12,0,52,1.14E-05,38,70,47,8087,13815,15859,16774257,7922,7429,9228,7215,Tag0,unknown
1.56758E+12,0,34,7.47E-06,48,70,47,16751766,7230,18167,28477,8582,3521,2010,1551,Tag0,unknown
1.56758E+12,0,48,1.05E-05,48,70,47,16751766,7230,18167,28477,8582,3521,2010,1551,Tag0,unknown
timestampMs,poorSignal,eegRawValue,eegRawValueVolts,attention,meditation,blinkStrength,delta,theta,alphaLow,alphaHigh,betaLow,betaHigh,gammaLow,gammaMid,tagEvent,location
1.56758E+12,0,41,9.01E-06,88,70,46,10677,19071,8703,5754,4789,7636,6012,5899,Tag0,unknown
1.56758E+12,0,85,1.87E-05,100,83,46,20108,5627,16603,11213,17832,11949,3158,2590,Tag0,unknown
1.56758E+12,0,76,1.67E-05,100,81,46,304982,11914,21221,2771,10563,17142,9542,4204,Tag0,unknown
1.56758E+12,0,25,5.49E-06,100,84,46,78541,18109,16747808,71791,19832,11480,4486,5348,Tag0,unknown
1.56758E+12,0,-125,-2.75E-05,81,94,46,14405,16203,16746539,41465,15729,11405,5976,5807,Tag0,unknown
1.56758E+12,0,53,1.16E-05,47,100,46,16750406,23912,24018,38259,11027,6954,11039,3639,Tag0,unknown
1.56758E+12,0,-91,-2.00E-05,20,100,46,16753648,12507,24579,16766112,14697,7037,17103,4337,Tag0,unknown
1.56758E+12,0,98,2.15E-05,38,100,46,8804,18538,11628,9532,9803,12433,22561,5026,Tag0,unknown
1.56758E+12,0,26,5.71E-06,53,93,46,10128,8587,29290,13662,16751867,12062,10544,9273,Tag0,unknown
1.56758E+12,0,71,1.56E-05,66,90,46,17631,23925,5820,16767894,6234,9774,8594,8360,Tag0,unknown
1.56758E+12,0,112,2.46E-05,80,91,46,10438,5196,16767694,95560,16439,27992,12757,5838,Tag0,unknown
1.56758E+12,0,-289,-6.35E-05,60,96,46,1464348,45343,16769868,33903,8116,22847,9288,7378,Tag0,unknown
1.56758E+12,0,48,1.05E-05,50,96,46,16610,16765487,16744540,16755937,22979,15770,7311,2777,Tag0,unknown
1.56758E+12,0,-284,-6.24E-05,56,93,46,13364,25640,16746502,26452,27612,16102,13575,7290,Tag0,unknown
1.56758E+12,0,21,4.61E-06,40,91,46,11321,16750255,16762664,49479,15467,10975,6519,10961,Tag0,unknown
1.56758E+12,0,57,1.25E-05,47,88,46,16846,67565,16745860,27869,16187,16159,5925,4476,Tag0,unknown
1.56758E+12,0,66,1.45E-05,60,87,46,15359,16752939,24347,23073,20024,27038,11165,5157,Tag0,unknown
1.56758E+12,0,77,1.69E-05,56,88,46,16774376,31486,24835,30292,12374,12235,8168,4813,Tag0,unknown
1.56758E+12,0,17,3.74E-06,50,88,46,5166,16749029,12628,200537,26425,8978,2490,2746,Tag0,unknown
1.56758E+12,0,-127,-2.79E-05,60,91,46,887,25099,15099,16745988,9943,16564,7726,2849,Tag0,unknown
1.56758E+12,0,56,1.23E-05,41,94,46,5598,20364,27420,19537,10964,7028,5059,4279,Tag0,unknown
1.56758E+12,0,41,9.01E-06,43,97,46,7246,6950,27296,15395,8182,7951,5044,5018,Tag0,unknown
1.56758E+12,0,118,2.59E-05,67,94,46,8744,9451,10450,16760367,12607,13198,5349,3958,Tag0,unknown
1.56758E+12,0,40,8.79E-06,47,100,46,4031,16751800,16772676,34112,11276,10929,4577,2049,Tag0,unknown
1.56758E+12,0,-260,-5.71E-05,69,94,46,16754803,30529,18215,16747160,25319,16771739,16062,6558,Tag0,unknown
1.56758E+12,0,10,2.20E-06,81,90,46,18027,13891,12714,16757486,24180,31810,6608,3050,Tag0,unknown
1.56758E+12,0,80,1.76E-05,66,93,46,13121,16750187,20800,45963,5804,12404,6314,3498,Tag0,unknown
1.56758E+12,0,105,2.31E-05,74,87,46,2242,16745327,15958,17082,7140,6635,8150,4731,Tag0,unknown
1.56758E+12,0,-101,-2.22E-05,51,93,46,5010,25188,15919,66539,11034,14668,7089,1660,Tag0,unknown
1.56758E+12,0,40,8.79E-06,38,91,46,32908,16749679,15661,19325,10345,11328,13163,6737,Tag0,unknown
1.56758E+12,0,102,2.24E-05,37,90,46,3560,24314,16766297,16773101,16745195,8425,4963,1052,Tag0,unknown
1.56758E+12,0,-20,-4.39E-06,23,88,46,272353,37418,8907,16764893,9409,5570,4630,6011,Tag0,unknown
1.56758E+12,0,33,7.25E-06,21,83,47,78661,16758063,21731,30466,19475,11913,9080,12875,Tag0,unknown
1.56758E+12,0,91,2.00E-05,29,83,47,208547,18778,19205,10059,6380,15860,8547,7902,Tag0,unknown
1.56758E+12,0,118,2.59E-05,24,80,47,608034,16774204,16753705,16762952,16744840,6492,11280,10622,Tag0,unknown
1.56758E+12,0,58,1.27E-05,47,83,47,17308,15132,20533,22401,16186,11551,10373,8288,Tag0,unknown
1.56758E+12,0,102,2.24E-05,43,84,47,19822,16756574,16747770,26295,12058,9527,10084,22052,Tag0,unknown
1.56758E+12,0,35,7.69E-06,40,84,47,7249,21153,12924,13226,6850,11926,9212,4587,Tag0,unknown
1.56758E+12,0,2,4.39E-07,64,87,47,11122,15918,7327,16764444,2406,22919,7604,6193,Tag0,unknown
1.56758E+12,0,84,1.85E-05,69,88,47,8744,11365,21347,22405,11400,14618,6056,2705,Tag0,unknown
1.56758E+12,0,-267,-5.87E-05,81,93,47,10610,5617,5915,68934,17002,16380,4762,3205,Tag0,unknown
1.56758E+12,0,87,1.91E-05,78,96,47,1619,13368,29906,29375,14884,13418,11535,3267,Tag0,unknown
1.56758E+12,0,60,1.32E-05,87,93,47,16188,17682,3201,16747087,9294,30638,6770,456,Tag0,unknown
1.56758E+12,0,44,9.67E-06,84,91,47,581952,16764056,18079,16773341,6540,31655,5926,4033,Tag0,unknown
1.56758E+12,0,108,2.37E-05,77,93,47,20598,12156,24984,16768472,7849,11551,17912,5799,Tag0,unknown
1.56758E+12,0,35,7.69E-06,74,91,47,9180,16745470,16757849,24505,12485,14356,4018,4730,Tag0,unknown
1.56758E+12,0,81,1.78E-05,47,97,47,8773,5855,10713,89883,19809,7476,2881,4845,Tag0,unknown
1.56758E+12,0,29,6.37E-06,37,100,47,5470,10783,11608,96580,14652,13137,12236,6925,Tag0,unknown
1.56758E+12,0,24,5.27E-06,21,100,47,12589,31024,27769,47099,4515,6880,10462,2055,Tag0,unknown
1.56758E+12,0,57,1.25E-05,20,100,47,3356,25046,21472,66436,20104,13204,8786,3700,Tag0,unknown
1.56758E+12,0,74,1.63E-05,30,100,47,4574,15343,14340,15144,18876,7889,9567,2471,Tag0,unknown
1.56758E+12,0,58,1.27E-05,40,94,47,19476,28271,21754,16750349,6972,15482,3999,982,Tag0,unknown
1.56758E+12,0,10,2.20E-06,60,93,47,3125,3831,32461,16759453,10625,18196,4349,3829,Tag0,unknown
1.56758E+12,0,8,1.76E-06,67,93,47,7325,20168,16745191,77221,19615,32038,4508,2018,Tag0,unknown
1.56758E+12,0,76,1.67E-05,64,96,47,2032,26832,16773745,10964,9499,13592,3800,7207,Tag0,unknown
1.56758E+12,0,54,1.19E-05,56,100,47,1347,12572,1653,50048,9742,12586,4107,3637,Tag0,unknown
1.56758E+12,0,37,8.13E-06,48,100,47,9098,10456,10206,52817,11499,14245,5505,1687,Tag0,unknown
1.56758E+12,0,100,2.20E-05,30,100,47,21247,17572,16757415,86821,19743,10502,7042,2372,Tag0,unknown
1.56758E+12,0,64,1.41E-05,35,100,47,13768,10508,1712,89784,8985,18256,2433,1790,Tag0,unknown
timestampMs,poorSignal,eegRawValue,eegRawValueVolts,attention,meditation,blinkStrength,delta,theta,alphaLow,alphaHigh,betaLow,betaHigh,gammaLow,gammaMid,tagEvent,location
1.56663E+12,25,54,1.19E-05,0,0,42,16489,230,619,350,523,178,16777127,48,Tag0,unknown
1.56663E+12,0,-261,-5.73E-05,0,0,42,517723,140557,16769867,16774983,18106,16760720,26474,16744532,Tag0,unknown
1.56663E+12,0,28,6.15E-06,0,0,42,16751892,21246,20272,9593,8969,21227,20340,5620,Tag0,unknown
1.56663E+12,0,-364,-8.00E-05,0,0,37,567112,16756430,16771232,24194,16767223,16755848,15669,7366,Tag0,unknown
1.56663E+12,0,38,8.35E-06,38,30,37,788530,16751008,12442,7681,23431,14326,12488,6122,Tag0,unknown
1.56663E+12,0,8,1.76E-06,61,21,37,146109,14908,7365,8019,28702,28162,9557,3771,Tag0,unknown
1.56663E+12,0,28,6.15E-06,69,14,37,30610,16745681,4125,16722,17267,24825,10383,13964,Tag0,unknown
1.56663E+12,0,-379,-8.33E-05,61,38,51,470815,21541,16774162,16751168,22137,26668,17687,16140,Tag0,unknown
1.56663E+12,0,53,1.16E-05,48,38,51,74074,16744492,10817,1406,4635,7169,10832,3827,Tag0,unknown
1.56663E+12,0,40,8.79E-06,37,37,40,160318,27059,4776,6895,3323,21795,12036,2861,Tag0,unknown
1.56663E+12,0,98,2.15E-05,30,24,40,114114,60015,10174,7157,16745238,16762608,27565,5725,Tag0,unknown
1.56663E+12,0,-328,-7.21E-05,27,10,45,84997,16363,4898,9289,3346,5547,7296,8324,Tag0,unknown
1.56663E+12,0,58,1.27E-05,21,14,45,522413,138492,25668,19596,20834,25840,15479,9979,Tag0,unknown
1.56663E+12,0,119,2.61E-05,1,24,39,1742160,16767491,15110,4536,6430,7610,4960,1415,Tag0,unknown
1.56663E+12,0,53,1.16E-05,1,47,39,16756462,78249,19340,26390,6673,16748673,23178,4055,Tag0,unknown
1.56663E+12,0,80,1.76E-05,27,30,39,4964,10812,7646,10511,16750677,16758151,29775,27614,Tag0,unknown
1.56663E+12,0,112,2.46E-05,40,50,39,130441,12791,12723,10937,6688,7847,9738,5157,Tag0,unknown
1.56663E+12,0,-40,-8.79E-06,63,34,39,80143,31012,2150,2106,2482,16211,4339,2914,Tag0,unknown
1.56663E+12,0,4,8.79E-07,54,43,43,642840,13606,10677,8357,2485,8249,8247,5606,Tag0,unknown
1.56663E+12,0,0,0,41,37,43,56531,79089,8765,8871,9107,16767152,26729,8908,Tag0,unknown
1.56663E+12,0,88,1.93E-05,61,24,43,424550,15810,9576,12839,14829,27697,29180,9148,Tag0,unknown
1.56663E+12,0,50,1.10E-05,54,50,43,125049,26722,21423,9154,14252,20296,12079,10274,Tag0,unknown
1.56663E+12,0,49,1.08E-05,70,41,39,26644,18391,11126,22365,16746077,16746081,13244,7823,Tag0,unknown
1.56663E+12,0,38,8.35E-06,57,61,39,43192,22462,12616,5456,2641,9777,2467,3050,Tag0,unknown
1.56663E+12,0,65,1.43E-05,63,43,39,16754597,16747728,9140,2486,16745501,16752568,12534,6875,Tag0,unknown
1.56663E+12,0,76,1.67E-05,53,35,39,637896,75180,13436,28814,16754190,21544,18726,18157,Tag0,unknown
1.56663E+12,0,87,1.91E-05,37,37,39,16772423,23600,2432,13440,3737,10062,12101,4480,Tag0,unknown
1.56663E+12,0,103,2.26E-05,38,35,39,323363,20439,15464,2666,7716,10339,8083,3164,Tag0,unknown
1.56663E+12,0,45,9.89E-06,11,34,39,683838,313233,4856,29768,22902,73307,28925,14525,Tag0,unknown
1.56663E+12,0,24,5.27E-06,3,14,39,122769,68442,1153,617,2951,7160,10322,2707,Tag0,unknown
1.56663E+12,0,54,1.19E-05,17,21,39,9612,26217,16748388,10024,13241,16760378,16750387,12305,Tag0,unknown
1.56663E+12,0,101,2.22E-05,24,27,39,103159,16757121,10933,16746293,15319,16745399,20478,12545,Tag0,unknown
1.56663E+12,0,66,1.45E-05,57,47,39,12467,2918,1317,7782,10344,16754029,16754036,23327,Tag0,unknown
1.56663E+12,0,7,1.54E-06,90,64,39,14342,4456,3348,7850,16747346,25648,9481,7608,Tag0,unknown
1.56663E+12,0,3,6.59E-07,90,53,39,132172,16182,5654,7042,18076,16748892,19596,18181,Tag0,unknown
1.56663E+12,0,-283,-6.22E-05,87,43,39,22539,16773132,22320,1425,20595,16749869,17193,27648,Tag0,unknown
1.56663E+12,0,259,5.69E-05,60,41,39,236253,16754681,7103,1141,7636,17579,9349,2158,Tag0,unknown
1.56663E+12,0,-266,-5.84E-05,43,57,37,377011,20887,14989,26778,9193,24021,18283,11142,Tag0,unknown
1.56663E+12,0,72,1.58E-05,21,74,37,1466491,16767398,16755854,16754534,24247,31517,25183,5696,Tag0,unknown
1.56663E+12,0,28,6.15E-06,13,90,37,13212,29626,15272,16775695,20653,24147,20711,27463,Tag0,unknown
1.56663E+12,0,65,1.43E-05,4,90,37,1079057,183683,19390,23284,16755958,16768644,16752853,15706,Tag0,unknown
1.56663E+12,0,-313,-6.88E-05,1,84,37,29803,16751901,25431,6921,11544,18605,10353,3481,Tag0,unknown
1.56663E+12,0,102,2.24E-05,1,74,37,16752228,63378,20125,28275,16748420,10097,16754168,12531,Tag0,unknown
1.56663E+12,0,-293,-6.44E-05,7,63,37,16765498,9407,12895,13376,16745688,18730,15192,3661,Tag0,unknown
1.56663E+12,0,58,1.27E-05,1,80,37,50159,16751855,10557,15194,3226,1937,3650,2284,Tag0,unknown
1.56663E+12,0,18,3.96E-06,10,84,37,12560,8160,22697,9070,18667,12693,14288,6766,Tag0,unknown
1.56663E+12,0,48,1.05E-05,26,96,37,16201,28340,11270,24961,5277,13961,14944,3988,Tag0,unknown
1.56663E+12,0,-132,-2.90E-05,24,100,37,16624,8305,10369,10714,9622,9656,12151,2341,Tag0,unknown
1.56663E+12,0,4,8.79E-07,34,91,41,651273,188222,22829,16746357,16767778,26063,13984,9180,Tag0,unknown
1.56663E+12,0,101,2.22E-05,23,78,41,223851,16756556,11436,2128,6808,7510,3424,3554,Tag0,unknown
1.56663E+12,0,0,0,20,63,41,147807,16767753,9512,6763,18580,8371,6143,2221,Tag0,unknown
1.56663E+12,0,71,1.56E-05,1,40,41,16759013,27468,781,1435,1454,1206,1267,181,Tag0,unknown
1.56663E+12,0,64,1.41E-05,14,48,41,16758942,18073,8498,5455,4317,11788,12076,6920,Tag0,unknown
1.56663E+12,0,49,1.08E-05,30,54,41,16753226,26016,27463,6834,15483,16759228,20657,9870,Tag0,unknown
1.56663E+12,0,80,1.76E-05,48,57,41,17045,30154,9135,14145,9566,16758970,11483,6642,Tag0,unknown
1.56663E+12,0,3,6.59E-07,54,75,37,535885,138742,16758091,16944,14289,21525,25520,8770,Tag0,unknown
1.56663E+12,0,-282,-6.20E-05,47,69,37,343401,43330,23393,10127,7331,19125,17604,23926,Tag0,unknown
1.56663E+12,0,37,8.13E-06,50,60,37,16772492,6761,243,2688,6581,9781,5285,2644,Tag0,unknown
1.56663E+12,0,60,1.32E-05,54,56,37,5435,8665,7758,11931,16752248,16763248,22577,5736,Tag0,unknown
timestampMs,poorSignal,eegRawValue,eegRawValueVolts,attention,meditation,blinkStrength,delta,theta,alphaLow,alphaHigh,betaLow,betaHigh,gammaLow,gammaMid,tagEvent,location
1.56758E+12,25,6,1.32E-06,0,0,41,38096,16769323,16747646,17685,12458,6027,3604,5221,Tag0,unknown
1.56758E+12,0,81,1.78E-05,0,0,41,144940,29107,4272,7796,6108,4478,984,1544,Tag0,unknown
1.56758E+12,0,107,2.35E-05,0,0,41,13376,15748,13569,21184,31573,14021,9210,2451,Tag0,unknown
1.56758E+12,0,-259,-5.69E-05,0,0,41,16749414,16747020,16764377,115374,26500,6554,7766,4180,Tag0,unknown
1.56758E+12,0,64,1.41E-05,51,47,41,6656,4652,10975,16765069,14427,17753,3440,2580,Tag0,unknown
1.56758E+12,0,49,1.08E-05,54,56,41,11407,20329,12977,16770208,5308,7780,2843,1984,Tag0,unknown
1.56758E+12,0,-263,-5.78E-05,60,64,41,1188,11927,3919,16749948,3194,6952,4039,895,Tag0,unknown
1.56758E+12,0,36,7.91E-06,74,67,41,7830,7172,1895,20326,3056,9029,3467,1638,Tag0,unknown
1.56758E+12,0,-276,-6.06E-05,64,66,41,25050,17750,9785,16766916,11326,7589,2596,2419,Tag0,unknown
1.56758E+12,0,48,1.05E-05,64,69,41,3353,19692,15859,34815,12450,12578,2041,1576,Tag0,unknown
1.56758E+12,0,40,8.79E-06,60,75,41,16754364,20433,16771906,149324,18985,14375,7023,1738,Tag0,unknown
1.56758E+12,0,84,1.85E-05,51,78,41,20003,19761,910,16768754,3512,10003,4137,2569,Tag0,unknown
1.56758E+12,0,35,7.69E-06,53,84,41,16761154,7780,7473,78211,8049,9878,4885,4286,Tag0,unknown
1.56758E+12,0,93,2.04E-05,57,75,41,4446,18482,24928,28411,31116,11775,4084,1561,Tag0,unknown
1.56758E+12,0,109,2.40E-05,57,69,41,4805,27540,27067,88479,19142,9152,4906,1359,Tag0,unknown
1.56758E+12,0,75,1.65E-05,56,77,41,4284,10583,16747657,16760465,9834,7729,4357,4200,Tag0,unknown
1.56758E+12,0,-258,-5.67E-05,61,69,41,6707,15167,6449,16771650,10518,15486,5032,7574,Tag0,unknown
1.56758E+12,0,56,1.23E-05,64,77,41,5426,9475,17200,16757432,7146,16144,5694,4689,Tag0,unknown
1.56758E+12,0,-259,-5.69E-05,70,67,41,16751968,11043,4388,16774146,16763292,12867,5092,2031,Tag0,unknown
1.56758E+12,0,0,0,81,44,41,8152,16748663,5053,9960,20489,13179,7788,4432,Tag0,unknown
1.56758E+12,0,-59,-1.30E-05,75,40,41,18280,16750928,16758711,13399,10123,9339,6658,7362,Tag0,unknown
1.56758E+12,0,67,1.47E-05,74,21,42,258904,68867,10330,10631,8180,14842,11865,6665,Tag0,unknown
1.56758E+12,0,-263,-5.78E-05,63,16,42,207049,93866,16746769,26050,5484,8452,16230,2230,Tag0,unknown
1.56758E+12,0,25,5.49E-06,61,20,42,30579,30615,6474,12710,16490,9629,8040,2881,Tag0,unknown
1.56758E+12,0,68,1.49E-05,69,26,42,7468,6758,7347,76156,13898,23366,7625,10534,Tag0,unknown
1.56758E+12,0,-258,-5.67E-05,69,43,42,9419,16190,18168,16751893,8905,13742,14079,2787,Tag0,unknown
1.56758E+12,0,39,8.57E-06,77,60,42,4342,20529,16764260,87863,6526,19535,7037,2867,Tag0,unknown
1.56758E+12,0,53,1.16E-05,75,74,42,4660,8743,5388,90971,16745012,17023,8236,3443,Tag0,unknown
1.56758E+12,0,17,3.74E-06,66,75,42,6962,16751011,76993,16758610,6649,14469,14569,4430,Tag0,unknown
1.56758E+12,0,40,8.79E-06,64,78,42,1179,5094,16747428,16745010,14613,11241,3310,1846,Tag0,unknown
1.56758E+12,0,73,1.60E-05,61,77,42,93587,7194,13713,29368,3344,3906,1628,161,Tag0,unknown
1.56758E+12,0,12,2.64E-06,56,80,42,18448,22724,2623,76173,4144,9928,3033,1618,Tag0,unknown
1.56758E+12,0,4,8.79E-07,56,75,42,7339,16751469,11582,16762389,3917,8950,4223,3485,Tag0,unknown
1.56758E+12,0,53,1.16E-05,53,70,42,17752,26787,25870,16753536,9794,9554,4871,5258,Tag0,unknown
1.56758E+12,0,17,3.74E-06,60,60,42,12875,16751674,24353,16751661,6287,19581,4994,1490,Tag0,unknown
1.56758E+12,0,25,5.49E-06,51,61,42,5135,16757380,22014,134213,16708,6703,2886,4105,Tag0,unknown
1.56758E+12,0,72,1.58E-05,60,63,42,11101,8259,24131,24054,7261,12366,2240,6293,Tag0,unknown
1.56758E+12,0,33,7.25E-06,63,69,42,8999,7901,3715,65899,7141,10663,14843,1494,Tag0,unknown
1.56758E+12,0,21,4.61E-06,48,81,42,8329,16748934,16756410,148211,9421,9004,7334,2099,Tag0,unknown
1.56758E+12,0,8,1.76E-06,61,78,42,7929,15951,16729,16757988,10553,12718,8285,4098,Tag0,unknown
1.56758E+12,0,18,3.96E-06,61,80,42,27608,1783,27362,14125,11014,9060,5557,4749,Tag0,unknown
1.56758E+12,0,48,1.05E-05,61,78,42,86640,20244,19818,70553,7844,14439,6889,4377,Tag0,unknown
1.56758E+12,0,-297,-6.53E-05,78,70,42,7541,14113,22900,16752896,9695,19144,6137,3107,Tag0,unknown
1.56758E+12,0,36,7.91E-06,75,66,42,16967,16759576,28455,16773066,18000,15410,6443,3382,Tag0,unknown
1.56758E+12,0,89,1.96E-05,66,67,42,12221,32456,12886,35211,6872,10904,12251,1171,Tag0,unknown
1.56758E+12,0,97,2.13E-05,61,75,42,13305,14270,16770224,153862,6517,19707,5123,3938,Tag0,unknown
1.56758E+12,0,88,1.93E-05,51,64,42,15104,32453,4796,25953,21097,5630,4935,7070,Tag0,unknown
1.56758E+12,0,43,9.45E-06,57,66,42,16759122,29956,9699,16768184,10058,19269,6695,3685,Tag0,unknown
1.56758E+12,0,70,1.54E-05,53,74,42,3269,24918,16334,104272,4160,9249,2617,1485,Tag0,unknown
1.56758E+12,0,60,1.32E-05,57,54,42,21971,18125,11315,18666,17424,6667,7432,1564,Tag0,unknown
1.56758E+12,0,-259,-5.69E-05,61,54,36,424005,16759148,15049,26481,18179,10925,15975,2570,Tag0,unknown
1.56758E+12,0,106,2.33E-05,53,41,36,1064969,16759048,7588,7658,6608,5561,2469,2058,Tag0,unknown
1.56758E+12,0,48,1.05E-05,66,24,36,16771566,24136,3940,24937,3722,10528,13710,3847,Tag0,unknown
1.56758E+12,0,64,1.41E-05,74,17,36,70666,16760551,7960,17342,12731,22557,2549,2708,Tag0,unknown
1.56758E+12,0,16,3.52E-06,77,24,36,15224,17564,20679,27082,7182,12528,11873,1700,Tag0,unknown
1.56758E+12,0,44,9.67E-06,67,50,36,11111,24929,16775198,157149,16725,8348,6872,2824,Tag0,unknown
1.56758E+12,0,38,8.35E-06,57,56,36,387840,16750536,16759070,16746342,1728,8880,5803,2130,Tag0,unknown
1.56758E+12,0,20,4.39E-06,44,80,36,12459,13188,29969,16758736,5114,5659,8080,2216,Tag0,unknown
1.56758E+12,0,90,1.98E-05,44,80,36,16759136,22132,16756055,27017,21277,16289,13272,5370,Tag0,unknown
timestampMs,poorSignal,eegRawValue,eegRawValueVolts,attention,meditation,blinkStrength,delta,theta,alphaLow,alphaHigh,betaLow,betaHigh,gammaLow,gammaMid,tagEvent,location
1.56759E+12,25,56,1.23E-05,0,0,84,5962,130,103,47,14,66,52,18,Tag0,unknown
1.56759E+12,25,-331,-7.27E-05,0,0,44,310134,19656,9061,16933,10382,8617,4675,6460,Tag0,unknown
1.56759E+12,0,53,1.16E-05,0,0,44,269818,56511,16755230,24852,16524,11067,7859,2091,Tag0,unknown
1.56759E+12,0,104,2.29E-05,0,0,44,123662,16767548,16773011,153145,17978,20347,20702,5504,Tag0,unknown
1.56759E+12,0,-262,-5.76E-05,0,0,44,22566,11530,3072,35004,8059,10752,8681,2210,Tag0,unknown
1.56759E+12,0,12,2.64E-06,51,44,44,50497,25605,23349,16766929,10503,9154,2644,3946,Tag0,unknown
1.56759E+12,0,1,2.20E-07,34,63,44,16746748,12326,20816,152290,17265,5631,10502,5426,Tag0,unknown
1.56759E+12,0,42,9.23E-06,41,78,44,442265,9928,29781,35138,10637,10141,8709,4461,Tag0,unknown
1.56759E+12,0,81,1.78E-05,64,88,44,13264,4852,7767,16752844,8813,8284,4392,6220,Tag0,unknown
1.56759E+12,0,36,7.91E-06,34,100,44,135310,23134,112276,82176,6940,5856,3531,2377,Tag0,unknown
1.56759E+12,0,98,2.15E-05,44,100,44,16759777,16747639,31840,48292,1306,6707,4393,2825,Tag0,unknown
1.56759E+12,0,77,1.69E-05,34,97,44,19146,16757210,16714,154988,584,8962,3847,3734,Tag0,unknown
1.56759E+12,0,32,7.03E-06,10,97,44,22822,16765224,8525,109595,6333,12416,5659,3633,Tag0,unknown
1.56759E+12,0,38,8.35E-06,34,90,44,15298,11591,16769103,16747566,11056,6185,5090,8750,Tag0,unknown
1.56759E+12,0,-282,-6.20E-05,37,90,44,10845,30859,16755651,61124,6278,8847,5259,1308,Tag0,unknown
1.56759E+12,0,72,1.58E-05,38,78,44,699084,84089,10200,87940,11493,8023,3349,1084,Tag0,unknown
1.56759E+12,0,2,4.39E-07,50,78,44,16770816,25314,58030,28609,14140,15996,7803,1044,Tag0,unknown
1.56759E+12,0,89,1.96E-05,35,67,44,16744605,74015,16774503,16760976,17085,5329,3268,3049,Tag0,unknown
1.56759E+12,0,28,6.15E-06,53,63,44,79355,27279,23391,93811,9718,16079,3366,2150,Tag0,unknown
1.56759E+12,0,26,5.71E-06,53,64,44,85157,16769599,16746695,16776613,9361,6538,5363,2133,Tag0,unknown
1.56759E+12,0,113,2.48E-05,43,67,44,81258,17646,12798,143386,16099,9583,5196,2518,Tag0,unknown
1.56759E+12,0,55,1.21E-05,61,84,44,19270,9358,29777,93454,5381,9536,4554,3852,Tag0,unknown
1.56759E+12,0,93,2.04E-05,57,83,44,16745222,25127,11052,16769751,5716,8902,4956,2359,Tag0,unknown
1.56759E+12,0,65,1.43E-05,63,93,44,14546,13523,9121,96508,11557,6633,4118,1458,Tag0,unknown
1.56759E+12,0,75,1.65E-05,56,87,44,16769989,16746392,17248,70738,2059,5196,3473,1892,Tag0,unknown
1.56759E+12,0,17,3.74E-06,74,70,44,16746929,28378,2900,16775662,4309,14327,2444,3117,Tag0,unknown
1.56759E+12,0,27,5.93E-06,56,84,44,16776030,12100,19475,116185,9631,9029,7464,3037,Tag0,unknown
1.56759E+12,0,-276,-6.06E-05,77,80,44,16747507,20424,28871,16770834,11358,16300,3274,695,Tag0,unknown
1.56759E+12,0,-125,-2.75E-05,84,84,44,30882,26497,16767791,78239,7185,10042,4424,1093,Tag0,unknown
1.56759E+12,0,69,1.52E-05,66,78,44,21869,16754744,18104,23575,6696,5071,3195,1968,Tag0,unknown
1.56759E+12,0,10,2.20E-06,84,69,44,16747997,12585,63934,16758692,21431,19166,5058,1782,Tag0,unknown
1.56759E+12,0,41,9.01E-06,75,78,44,96841,6198,11565,16757210,2974,6022,1139,2875,Tag0,unknown
1.56759E+12,0,58,1.27E-05,75,66,44,13337,16750259,27381,16763061,16849,7179,3113,2946,Tag0,unknown
1.56759E+12,0,10,2.20E-06,84,57,44,16771123,73307,10360,21051,11932,10849,9391,3421,Tag0,unknown
1.56759E+12,0,99,2.18E-05,88,30,44,16750303,98071,3819,30498,14161,16602,5395,1131,Tag0,unknown
1.56759E+12,0,5,1.10E-06,80,34,44,14216,11800,16772206,92849,14213,11126,3726,4499,Tag0,unknown
1.56759E+12,0,-118,-2.59E-05,93,38,44,16747139,19713,5417,87862,8827,13728,5844,2889,Tag0,unknown
1.56759E+12,0,86,1.89E-05,87,53,44,797380,16746540,4917,68652,8029,7742,6318,1632,Tag0,unknown
1.56759E+12,0,16,3.52E-06,91,60,44,19948,25536,4788,13270,8003,8325,10723,4128,Tag0,unknown
1.56759E+12,0,98,2.15E-05,97,48,44,16749625,19133,10638,16753759,13494,6757,6574,2094,Tag0,unknown
1.56759E+12,0,27,5.93E-06,61,43,44,13573,16774171,16753381,16769855,5464,2784,3230,718,Tag0,unknown
1.56759E+12,0,64,1.41E-05,64,41,44,67591,31937,16770395,16748144,30048,12634,5907,4368,Tag0,unknown
1.56759E+12,0,24,5.27E-06,35,61,44,31040,16766884,6581,208621,14187,10213,6367,1068,Tag0,unknown
1.56759E+12,0,39,8.57E-06,30,66,44,23463,17185,10631,77591,14271,8617,3682,4152,Tag0,unknown
1.56759E+12,0,51,1.12E-05,56,64,44,16768241,16753846,26479,16764761,9155,8862,2752,2392,Tag0,unknown
1.56759E+12,0,68,1.49E-05,51,70,44,8084,16746346,16756568,70715,9865,12073,3000,964,Tag0,unknown
1.56759E+12,0,89,1.96E-05,54,67,44,16759746,16744861,17576,75036,4682,5597,6115,8352,Tag0,unknown
1.56759E+12,0,61,1.34E-05,48,56,44,90970,27646,6987,19100,3395,3448,4047,2088,Tag0,unknown
1.56759E+12,0,82,1.80E-05,63,56,44,28399,11535,21061,18786,8143,8764,5549,1618,Tag0,unknown
1.56759E+12,0,85,1.87E-05,56,63,44,29190,9706,16752938,16754021,7508,4071,3299,2653,Tag0,unknown
1.56759E+12,0,22,4.83E-06,56,69,44,32256,18175,16753294,47026,18930,7140,4985,1540,Tag0,unknown
1.56759E+12,0,99,2.18E-05,51,80,44,92796,16765129,91177,16765715,12777,10075,3702,2197,Tag0,unknown
1.56759E+12,0,16,3.52E-06,35,83,44,6548,16753281,1698,33298,2043,10094,4228,2986,Tag0,unknown
1.56759E+12,0,-321,-7.05E-05,26,77,44,371464,73498,16755874,145446,6819,7894,2862,2659,Tag0,unknown
1.56759E+12,0,88,1.93E-05,27,67,44,22551,25015,16748359,16774328,27245,6893,7924,2295,Tag0,unknown
1.56759E+12,0,84,1.85E-05,44,63,44,16767810,32508,16761393,31746,17728,14138,13471,1243,Tag0,unknown
1.56759E+12,0,36,7.91E-06,50,67,44,16758643,8603,25727,16765792,13412,7432,5569,940,Tag0,unknown
1.56759E+12,0,45,9.89E-06,84,53,44,348247,16747265,12157,16750013,18527,30203,9205,3426,Tag0,unknown
1.56759E+12,0,33,7.25E-06,93,44,44,16770264,16759164,29736,28069,14469,12663,3333,3553,Tag0,unknown
timestampMs,poorSignal,eegRawValue,eegRawValueVolts,attention,meditation,blinkStrength,delta,theta,alphaLow,alphaHigh,betaLow,betaHigh,gammaLow,gammaMid,tagEvent,location
1.56759E+12,25,97,2.13E-05,0,0,47,332048,19361,16018,11684,8399,5194,2970,6115,Tag0,unknown
1.56759E+12,0,51,1.12E-05,0,0,47,157863,16775967,24633,29447,16755775,8351,5228,2417,Tag0,unknown
1.56759E+12,0,-275,-6.04E-05,0,0,47,16765969,67209,16753238,22978,18417,10081,7942,4164,Tag0,unknown
1.56759E+12,0,26,5.71E-06,0,0,47,256722,19427,24210,82146,28626,6732,6912,2409,Tag0,unknown
1.56759E+12,0,20,4.39E-06,51,50,47,16760776,19457,29854,30168,6738,9549,6043,762,Tag0,unknown
1.56759E+12,0,-321,-7.05E-05,34,69,47,22048,16758175,16760657,51408,8061,6285,6773,1085,Tag0,unknown
1.56759E+12,0,11,2.42E-06,38,83,47,50322,7889,13408,10212,1115,2603,1302,679,Tag0,unknown
1.56759E+12,0,99,2.18E-05,47,93,47,29616,17057,10682,72200,29472,10060,4273,2753,Tag0,unknown
1.56759E+12,0,23,5.05E-06,57,78,47,66938,5803,4725,11884,12898,10027,7074,1238,Tag0,unknown
1.56759E+12,0,50,1.10E-05,88,41,47,16758241,16751557,3364,16044,27374,13099,2830,1883,Tag0,unknown
1.56759E+12,0,105,2.31E-05,64,51,47,16754578,24744,69049,16770104,6299,2582,5056,729,Tag0,unknown
1.56759E+12,0,92,2.02E-05,57,60,47,13054,22045,22353,40472,12033,11405,6248,4525,Tag0,unknown
1.56759E+12,0,107,2.35E-05,30,84,47,16764696,24082,15687,62529,11648,9789,2945,2202,Tag0,unknown
1.56759E+12,0,-274,-6.02E-05,23,100,47,16753830,8079,22145,77586,7768,10037,8920,2087,Tag0,unknown
1.56759E+12,0,39,8.57E-06,38,100,47,78384,16748916,16758172,293416,18080,19569,2429,1763,Tag0,unknown
1.56759E+12,0,17,3.74E-06,27,100,47,466517,16774394,21286,151655,18839,8153,3188,2665,Tag0,unknown
1.56759E+12,0,57,1.25E-05,29,100,47,16754114,16769499,16754514,16769260,19787,9393,7726,2646,Tag0,unknown
1.56759E+12,0,85,1.87E-05,38,75,47,20432,30925,9849,25299,11410,11835,5533,2044,Tag0,unknown
1.56759E+12,0,-257,-5.65E-05,26,75,47,491386,28994,30730,281319,6851,7229,5670,3367,Tag0,unknown
1.56759E+12,0,45,9.89E-06,24,75,47,16766717,16768947,21145,208343,18147,8472,3320,1362,Tag0,unknown
1.56759E+12,0,112,2.46E-05,29,74,47,16765975,13034,12802,23500,6251,4842,4199,2222,Tag0,unknown
1.56759E+12,0,73,1.60E-05,4,94,47,16769137,16768286,16755371,273334,7036,9156,3384,5663,Tag0,unknown
1.56759E+12,0,3,6.59E-07,30,70,47,19664,16755900,19932,71957,22012,23348,4152,2994,Tag0,unknown
1.56759E+12,0,11,2.42E-06,41,74,47,79493,29553,25938,147772,8451,12762,5096,4238,Tag0,unknown
1.56759E+12,0,42,9.23E-06,35,78,47,22763,17160,23150,16748439,8300,4606,5609,3475,Tag0,unknown
1.56759E+12,0,67,1.47E-05,54,60,47,16748108,19765,14023,16751035,30931,7265,8977,2591,Tag0,unknown
1.56759E+12,0,19,4.17E-06,40,64,47,77748,16771021,7888,63748,11318,11089,4194,694,Tag0,unknown
1.56759E+12,0,99,2.18E-05,37,69,47,18280,16820,16759498,83768,2977,7466,5124,3179,Tag0,unknown
1.56759E+12,0,60,1.32E-05,40,66,47,9874,28273,32629,16762182,17106,8762,1696,1339,Tag0,unknown
1.56759E+12,0,19,4.17E-06,17,75,47,16177,16776633,19120,50112,5338,4249,1964,2123,Tag0,unknown
1.56759E+12,0,54,1.19E-05,14,66,47,16760065,69845,16758439,23038,7902,5989,4929,1632,Tag0,unknown
1.56759E+12,0,124,2.72E-05,13,54,47,16767612,65647,16762411,34412,12796,9146,2739,1210,Tag0,unknown
1.56759E+12,0,-275,-6.04E-05,1,51,47,46043,65444,29777,16772731,8758,3944,5634,2153,Tag0,unknown
1.56759E+12,0,7,1.54E-06,21,56,47,6197,8154,6546,39982,10389,14515,6086,1885,Tag0,unknown
1.56759E+12,0,25,5.49E-06,29,75,47,27905,21033,32444,91307,1392,10377,9500,3060,Tag0,unknown
1.56759E+12,0,77,1.69E-05,27,78,47,55162,8341,3706,22761,1938,1173,583,131,Tag0,unknown
1.56759E+12,0,5,1.10E-06,37,94,47,17172,19845,92839,80661,6884,8400,3748,3639,Tag0,unknown
1.56759E+12,0,45,9.89E-06,30,83,47,16746945,16753185,24496,16766042,11923,10398,4236,3406,Tag0,unknown
1.56759E+12,0,58,1.27E-05,27,81,47,32165,16748110,2660,161693,5588,12077,5722,4799,Tag0,unknown
1.56759E+12,0,32,7.03E-06,40,75,47,16764251,16749986,16755287,16749534,6705,11532,7171,3901,Tag0,unknown
1.56759E+12,0,103,2.26E-05,47,50,47,16757928,69036,3294,16761662,17839,8406,4091,2179,Tag0,unknown
1.56759E+12,0,27,5.93E-06,40,50,47,15955,16773280,12041,78622,4196,7686,7366,4941,Tag0,unknown
1.56759E+12,0,59,1.30E-05,47,44,47,9468,27698,2954,97265,8270,12220,4396,2411,Tag0,unknown
1.56759E+12,0,55,1.21E-05,38,51,47,139339,31211,16745616,85638,11353,7857,4337,2135,Tag0,unknown
1.56759E+12,0,23,5.05E-06,41,64,47,16773972,30803,16745339,68556,16938,13674,6059,3919,Tag0,unknown
1.56759E+12,0,92,2.02E-05,64,66,47,27578,6227,22222,31238,16411,16784,7766,4587,Tag0,unknown
1.56759E+12,0,37,8.13E-06,44,54,47,16744375,131979,16766795,73861,12448,6002,5171,3285,Tag0,unknown
1.56759E+12,0,36,7.91E-06,37,60,47,17315,30222,85274,85824,10882,6009,2907,6266,Tag0,unknown
1.56759E+12,0,64,1.41E-05,30,66,47,7243,12292,27296,76394,14263,7376,4341,2404,Tag0,unknown
1.56759E+12,0,119,2.61E-05,14,80,47,16751996,7817,8319,51762,8856,12816,8794,3339,Tag0,unknown
1.56759E+12,0,34,7.47E-06,26,81,47,16765761,20520,2542,23568,2315,2216,3840,923,Tag0,unknown
1.56759E+12,0,26,5.71E-06,38,84,47,16762062,10213,26220,78345,4566,7795,13315,2969,Tag0,unknown
1.56759E+12,0,98,2.15E-05,21,80,47,22109,16768551,16752962,33376,9361,3482,5292,1415,Tag0,unknown
1.56759E+12,0,11,2.42E-06,30,64,47,27646,25667,16752671,21462,8764,14499,4384,1838,Tag0,unknown
1.56759E+12,0,108,2.37E-05,38,64,47,30625,16767606,8531,16770354,6226,11245,3528,5117,Tag0,unknown
1.56759E+12,0,39,8.57E-06,29,60,47,16769925,27700,23935,65191,20633,6734,3564,1993,Tag0,unknown
1.56759E+12,0,112,2.46E-05,51,57,47,16745318,15651,18872,32046,7181,6880,3771,4705,Tag0,unknown
1.56759E+12,0,12,2.64E-06,34,66,47,16750233,16748925,44059,16752652,15024,7919,7051,4256,Tag0,unknown
1.56759E+12,0,80,1.76E-05,27,53,47,96292,77348,21880,7043,13120,6829,4384,1853,Tag0,unknown
timestampMs,poorSignal,eegRawValue,eegRawValueVolts,attention,meditation,blinkStrength,delta,theta,alphaLow,alphaHigh,betaLow,betaHigh,gammaLow,gammaMid,tagEvent,location
1.56759E+12,25,96,2.11E-05,0,0,38,6961,2920,123,213,186,91,75,109,Tag0,unknown
1.56759E+12,25,-315,-6.92E-05,0,0,36,108949,16773261,9108,17072,4771,6727,9790,6184,Tag0,unknown
1.56759E+12,0,57,1.25E-05,0,0,35,135646,16746015,8170,19580,16757616,16560,8609,6996,Tag0,unknown
1.56759E+12,0,-269,-5.91E-05,0,0,35,212483,19223,1592,13608,2775,2814,2682,1793,Tag0,unknown
1.56759E+12,0,87,1.91E-05,0,0,35,93171,16749954,9181,20516,13178,11397,21014,15889,Tag0,unknown
1.56759E+12,0,74,1.63E-05,41,44,35,43255,43295,16749375,16752651,30398,26784,6553,10139,Tag0,unknown
1.56759E+12,0,-298,-6.55E-05,53,67,35,24292,15993,19248,30206,20100,16567,16756970,2766,Tag0,unknown
1.56759E+12,0,87,1.91E-05,47,91,35,30726,16750227,6450,75995,13694,10450,8599,12025,Tag0,unknown
1.56759E+12,0,102,2.24E-05,57,100,35,14204,32627,17071,16748136,14477,21097,8957,2523,Tag0,unknown
1.56759E+12,0,9,1.98E-06,51,100,35,19257,16750533,28653,36986,8173,16256,14320,3899,Tag0,unknown
1.56759E+12,0,75,1.65E-05,41,100,35,14221,22875,28981,71875,13064,18059,14922,7294,Tag0,unknown
1.56759E+12,0,28,6.15E-06,35,100,35,16752284,14972,16757269,16761832,3829,6919,3452,4587,Tag0,unknown
1.56759E+12,0,26,5.71E-06,27,100,35,142414,27620,31099,58248,27281,29341,7672,10650,Tag0,unknown
1.56759E+12,0,-126,-2.77E-05,26,87,37,265677,66228,12094,16302,12036,8250,8733,2790,Tag0,unknown
1.56759E+12,0,40,8.79E-06,23,48,34,1087786,211047,20754,16757718,81695,31130,24371,4759,Tag0,unknown
1.56759E+12,0,25,5.49E-06,44,11,34,325668,45555,28232,16820,8013,16745420,7332,10712,Tag0,unknown
1.56759E+12,0,11,2.42E-06,64,1,37,45043,29978,9449,11376,14627,29918,18910,16475,Tag0,unknown
1.56759E+12,0,69,1.52E-05,78,1,37,70345,33531,14150,16755354,12267,16745061,16969,12112,Tag0,unknown
1.56759E+12,0,0,0,70,1,37,344440,278755,28251,16753472,16750896,28073,26387,9962,Tag0,unknown
1.56759E+12,0,75,1.65E-05,70,1,40,446839,195935,16763350,78268,16760083,92397,16760254,4302,Tag0,unknown
1.56759E+12,0,-357,-7.84E-05,44,1,33,1089978,40590,25948,16765227,13037,20523,26450,11308,Tag0,unknown
1.56759E+12,0,-293,-6.44E-05,53,1,33,2119734,74648,5766,15593,6605,16747868,22329,1774,Tag0,unknown
1.56759E+12,0,90,1.98E-05,84,1,33,74628,23635,16699,21480,17360,16765110,13856,22939,Tag0,unknown
1.56759E+12,0,65,1.43E-05,57,3,33,398970,66058,18165,18102,22754,4911,16748,3000,Tag0,unknown
1.56759E+12,0,18,3.96E-06,63,8,33,262666,54752,16753304,78651,12256,16756310,9709,10403,Tag0,unknown
1.56759E+12,0,-289,-6.35E-05,51,8,53,756558,273020,16962,24806,6500,66464,16759258,22435,Tag0,unknown
1.56759E+12,0,13,2.86E-06,21,10,36,605439,44757,16751431,14821,26096,17312,9567,3897,Tag0,unknown
1.56759E+12,0,36,7.91E-06,34,13,36,440524,172602,65496,16760860,23340,16751690,11802,15764,Tag0,unknown
1.56759E+12,0,67,1.47E-05,48,16,36,318948,22968,28496,16751135,17871,16757275,18706,5749,Tag0,unknown
1.56759E+12,0,69,1.52E-05,44,40,36,337347,122285,207310,26530,25807,72314,17474,8149,Tag0,unknown
1.56759E+12,0,-220,-4.83E-05,53,44,36,606095,60650,82841,8448,23453,16748783,21087,5975,Tag0,unknown
1.56759E+12,0,36,7.91E-06,61,40,37,667858,102745,28552,29369,16165,16759776,13430,13235,Tag0,unknown
1.56759E+12,0,-279,-6.13E-05,50,30,37,131394,22570,11924,6483,11174,9920,4926,2663,Tag0,unknown
1.56759E+12,0,-258,-5.67E-05,34,8,37,1634325,171336,2217,29825,26253,15498,21588,26865,Tag0,unknown
1.56759E+12,0,67,1.47E-05,51,4,37,32577,12274,6746,9498,9489,19127,25360,5377,Tag0,unknown
1.56759E+12,0,54,1.19E-05,51,20,37,314613,16753826,29208,16746483,14032,22984,21307,5688,Tag0,unknown
1.56759E+12,0,-120,-2.64E-05,54,23,37,16758698,16752478,15350,31948,22583,22852,24225,21525,Tag0,unknown
1.56759E+12,0,-258,-5.67E-05,88,47,37,16758044,18409,21277,16753011,22216,16757382,11463,1459,Tag0,unknown
1.56759E+12,0,43,9.45E-06,67,60,37,79980,16767936,10232,51352,20993,28996,13466,7312,Tag0,unknown
1.56759E+12,0,70,1.54E-05,77,61,37,19693,8035,6041,31300,14046,16971,19279,3774,Tag0,unknown
1.56759E+12,0,-373,-8.20E-05,67,57,37,16750617,16760534,13367,23900,29063,12293,10611,2272,Tag0,unknown
1.56759E+12,0,77,1.69E-05,56,57,37,320040,19423,14466,16751870,29397,20524,5309,8659,Tag0,unknown
1.56759E+12,0,89,1.96E-05,60,40,37,1011091,129001,31740,16745692,16594,16763327,13454,5362,Tag0,unknown
1.56759E+12,0,5,1.10E-06,70,23,37,29234,15141,5116,15268,19066,16757003,14363,5573,Tag0,unknown
1.56759E+12,0,39,8.57E-06,94,21,37,6645,7072,5604,14957,10071,16757154,20914,18357,Tag0,unknown
1.56759E+12,0,43,9.45E-06,93,21,37,5912,12355,9209,17836,9864,13022,12262,11541,Tag0,unknown
1.56759E+12,0,1,2.20E-07,100,13,37,2919,13156,3607,3433,12130,30160,13905,5244,Tag0,unknown
1.56759E+12,0,65,1.43E-05,80,23,37,64973,89710,24129,72978,21329,19322,15828,15696,Tag0,unknown
1.56759E+12,0,25,5.49E-06,64,26,37,537156,30828,16750324,6152,16747203,16746010,13534,18644,Tag0,unknown
1.56759E+12,0,37,8.13E-06,64,11,37,315196,16771517,13851,10433,17938,24765,14064,2824,Tag0,unknown
1.56759E+12,0,76,1.67E-05,63,17,37,67503,21762,3314,15313,13456,16768662,13371,7458,Tag0,unknown
1.56759E+12,0,96,2.11E-05,70,1,37,92003,84973,11480,12211,28966,22696,6658,11849,Tag0,unknown
1.56759E+12,0,37,8.13E-06,64,1,35,213762,86744,23551,23106,25333,16751737,25322,3501,Tag0,unknown
1.56759E+12,0,74,1.63E-05,57,1,35,573834,159785,6509,8820,25714,27241,15480,4721,Tag0,unknown
1.56759E+12,0,122,2.68E-05,26,1,35,1374678,54925,28325,8912,16746804,13472,9530,10707,Tag0,unknown
1.56759E+12,0,60,1.32E-05,21,1,35,102507,16749782,2858,7278,9046,6503,1897,1093,Tag0,unknown
1.56759E+12,0,7,1.54E-06,10,8,35,62504,71652,24918,16752386,16750505,15068,25519,27464,Tag0,unknown
1.56759E+12,0,49,1.08E-05,20,24,35,1324745,16760202,16744369,11488,16753240,30671,28527,21661,Tag0,unknown
1.56759E+12,0,-302,-6.64E-05,38,29,35,21605,16745436,17998,11815,22253,30018,20557,17386,Tag0,unknown
timestampMs,poorSignal,eegRawValue,eegRawValueVolts,attention,meditation,blinkStrength,delta,theta,alphaLow,alphaHigh,betaLow,betaHigh,gammaLow,gammaMid,tagEvent,location
1.5676E+12,25,26,5.71E-06,0,0,46,48,3,0,1,1,1,0,1,Tag0,unknown
1.5676E+12,25,2,4.39E-07,0,0,46,7909,459,286,220,80,47,61,36,Tag0,unknown
1.5676E+12,25,53,1.16E-05,0,0,46,220207,169250,148071,16761976,27920,28480,31644,22953,Tag0,unknown
1.5676E+12,0,37,8.13E-06,0,0,46,289203,16765710,16748266,98061,9261,10073,6065,5244,Tag0,unknown
1.5676E+12,0,109,2.40E-05,0,0,46,524656,15492,16764856,45361,14865,13430,6823,4517,Tag0,unknown
1.5676E+12,0,29,6.37E-06,0,0,46,16750494,79844,19773,157413,16746261,9578,4809,1815,Tag0,unknown
1.5676E+12,0,73,1.60E-05,53,30,46,30487,28362,5667,24871,2646,9505,5696,3386,Tag0,unknown
1.5676E+12,0,51,1.12E-05,60,35,46,397916,18168,16748892,16747409,9931,8152,4640,3076,Tag0,unknown
1.5676E+12,0,71,1.56E-05,61,37,46,57455,16749868,16774048,25451,6481,9238,5222,3523,Tag0,unknown
1.5676E+12,0,39,8.57E-06,66,35,46,42183,11243,7674,13914,1398,3175,1489,150,Tag0,unknown
1.5676E+12,0,44,9.67E-06,50,50,46,16772372,18408,9326,85231,15310,5624,3656,2163,Tag0,unknown
1.5676E+12,0,43,9.45E-06,51,51,46,15967,22271,16640,74244,14453,11429,5152,1787,Tag0,unknown
1.5676E+12,0,56,1.23E-05,44,54,46,15983,25180,15124,16767417,5082,4336,7550,2141,Tag0,unknown
1.5676E+12,0,-274,-6.02E-05,60,56,46,16751327,14585,10106,16766986,7371,19140,6462,3139,Tag0,unknown
1.5676E+12,0,53,1.16E-05,78,41,46,137496,14620,6647,14555,7239,6278,2393,1111,Tag0,unknown
1.5676E+12,0,99,2.18E-05,77,30,46,96095,26280,12457,27362,9618,6029,6951,3098,Tag0,unknown
1.5676E+12,0,20,4.39E-06,67,10,46,94460,80112,16710,18001,4832,3294,10299,2624,Tag0,unknown
1.5676E+12,0,52,1.14E-05,47,17,46,89340,29908,16755870,37578,16253,9667,4946,2413,Tag0,unknown
1.5676E+12,0,86,1.89E-05,35,29,46,32341,14933,27829,32404,8577,6884,10419,1659,Tag0,unknown
1.5676E+12,0,-311,-6.83E-05,30,54,46,11292,10334,32408,203034,10766,16896,8597,3798,Tag0,unknown
1.5676E+12,0,23,5.05E-06,50,83,46,16765832,6003,16759630,74081,14412,12998,3513,4829,Tag0,unknown
1.5676E+12,0,58,1.27E-05,50,96,46,16748734,6773,16748274,139638,6064,10741,2688,4363,Tag0,unknown
1.5676E+12,0,117,2.57E-05,53,100,46,446894,29476,21171,48150,12151,18840,3697,2198,Tag0,unknown
1.5676E+12,0,123,2.70E-05,41,53,46,16748561,16755396,3032,31265,2820,10577,5849,2720,Tag0,unknown
1.5676E+12,0,72,1.58E-05,41,43,46,22947,9299,16756983,16773488,15003,6794,7191,3195,Tag0,unknown
1.5676E+12,0,-259,-5.69E-05,35,38,46,20517,16750652,16767766,16768703,12377,11305,2902,1946,Tag0,unknown
1.5676E+12,0,49,1.08E-05,48,60,46,16765879,7403,10045,39635,8252,6831,3081,2048,Tag0,unknown
1.5676E+12,0,68,1.49E-05,47,53,46,721907,16756121,763,20010,25239,8631,5331,2407,Tag0,unknown
1.5676E+12,0,-277,-6.09E-05,53,48,46,382833,27722,73046,18244,5952,9378,9810,1729,Tag0,unknown
1.5676E+12,0,71,1.56E-05,48,35,46,44149,87949,27182,28900,9169,8042,6517,3472,Tag0,unknown
1.5676E+12,0,-282,-6.20E-05,51,10,46,16747743,23964,15905,3055,1885,2506,1197,1007,Tag0,unknown
1.5676E+12,0,83,1.82E-05,41,24,46,31141,16749773,16752263,9989,13161,5754,7479,9045,Tag0,unknown
1.5676E+12,0,22,4.83E-06,56,3,46,80761,7157,2068,2027,2359,2228,3673,716,Tag0,unknown
1.5676E+12,0,0,0,66,1,46,17615,14522,6314,3038,4402,2689,1579,467,Tag0,unknown
1.5676E+12,0,45,9.89E-06,70,1,46,75699,16753589,29514,1076,28194,6258,23162,5241,Tag0,unknown
1.5676E+12,0,17,3.74E-06,91,1,46,16755711,16756569,5419,2785,12005,13714,9988,2280,Tag0,unknown
1.5676E+12,0,76,1.67E-05,78,1,46,16751258,20174,10335,16749436,6428,6018,9192,7633,Tag0,unknown
1.5676E+12,0,64,1.41E-05,69,1,46,156131,108211,21774,16749749,21327,14394,11116,4264,Tag0,unknown
1.5676E+12,0,104,2.29E-05,69,7,46,111536,16761896,6535,16782,13514,6608,6471,4055,Tag0,unknown
1.5676E+12,0,41,9.01E-06,70,21,46,29839,16677,6148,16850,6927,14688,3646,2845,Tag0,unknown
1.5676E+12,0,-126,-2.77E-05,69,14,46,16758552,16768562,19684,30033,7453,9592,19780,3943,Tag0,unknown
1.5676E+12,0,17,3.74E-06,94,16,46,23622,12971,8330,15904,23559,24473,12772,10924,Tag0,unknown
1.5676E+12,0,-280,-6.15E-05,100,20,46,31315,18076,7436,12227,10877,19663,5393,2511,Tag0,unknown
1.5676E+12,0,-260,-5.71E-05,84,16,46,80436,11229,3104,2763,778,1000,1129,512,Tag0,unknown
1.5676E+12,0,55,1.21E-05,77,10,55,273098,30095,4231,8455,5182,2409,1802,1357,Tag0,unknown
1.5676E+12,0,22,4.83E-06,63,4,55,21438,28445,3902,5878,5211,7565,11301,2185,Tag0,unknown
1.5676E+12,0,103,2.26E-05,48,1,55,16754040,16772792,11778,3625,7984,11198,11725,1770,Tag0,unknown
1.5676E+12,0,40,8.79E-06,54,1,55,258446,29129,14894,4788,29510,5852,10539,3045,Tag0,unknown
1.5676E+12,0,-332,-7.29E-05,63,10,55,134636,19321,19562,16763748,18893,10181,7505,6990,Tag0,unknown
1.5676E+12,0,-333,-7.32E-05,50,26,55,875998,16759111,16751813,25039,5123,7427,5031,2779,Tag0,unknown
1.5676E+12,0,-346,-7.60E-05,47,27,40,445687,76143,17227,5765,15381,12014,6645,8267,Tag0,unknown
1.5676E+12,0,52,1.14E-05,48,26,40,127775,16760379,4596,11207,7763,7562,3259,4426,Tag0,unknown
1.5676E+12,0,19,4.17E-06,50,11,40,75482,16748938,8142,9078,7826,7077,3752,5857,Tag0,unknown
1.5676E+12,0,-261,-5.73E-05,56,8,40,115194,16759988,24683,16751652,11873,13799,8967,2025,Tag0,unknown
1.5676E+12,0,-285,-6.26E-05,51,30,40,21037,20489,32189,82679,16176,10817,9988,3715,Tag0,unknown
1.5676E+12,0,105,2.31E-05,44,29,40,2577536,167586,23305,16744646,16747072,18638,15618,6800,Tag0,unknown
1.5676E+12,0,89,1.96E-05,38,23,40,16755076,147289,12601,23683,12218,13939,3728,5930,Tag0,unknown
1.5676E+12,0,16,3.52E-06,47,23,40,57705,16762716,16752383,16754906,21027,16745745,7124,2554,Tag0,unknown
1.5676E+12,0,72,1.58E-05,60,13,40,445770,31573,17510,16747966,10306,19096,9964,3907,Tag0,unknown
timestampMs,poorSignal,eegRawValue,eegRawValueVolts,attention,meditation,blinkStrength,delta,theta,alphaLow,alphaHigh,betaLow,betaHigh,gammaLow,gammaMid,tagEvent,location
1.5676E+12,25,75,1.65E-05,0,0,59,14270,1937,384,32,44,63,9,30,Tag0,unknown
1.5676E+12,25,7,1.54E-06,0,0,59,624861,348593,96955,16770717,30075,28679,16302,26964,Tag0,unknown
1.5676E+12,0,76,1.67E-05,0,0,59,1355366,117807,16764494,2675,13217,19423,8200,2370,Tag0,unknown
1.5676E+12,0,102,2.24E-05,0,0,59,305585,85334,16760464,27512,7940,10456,7734,4202,Tag0,unknown
1.5676E+12,0,-305,-6.70E-05,0,0,59,114681,16758167,9330,14330,10853,11279,19169,6843,Tag0,unknown
1.5676E+12,0,-102,-2.24E-05,30,30,59,341812,179487,15884,16754292,20767,16578,9636,5403,Tag0,unknown
1.5676E+12,0,40,8.79E-06,30,34,59,16767952,15138,3738,6738,10400,2022,3132,1078,Tag0,unknown
1.5676E+12,0,5,1.10E-06,54,38,59,792746,30554,5410,21459,18526,15343,12454,6076,Tag0,unknown
1.5676E+12,0,55,1.21E-05,78,20,59,16762556,87814,2880,11591,22985,16746544,10699,7678,Tag0,unknown
1.5676E+12,0,35,7.69E-06,90,17,59,75228,204989,16753106,10215,11015,30379,10382,5877,Tag0,unknown
1.5676E+12,0,96,2.11E-05,100,16,59,16298,22638,15303,9777,18416,27853,9137,7603,Tag0,unknown
1.5676E+12,0,-269,-5.91E-05,94,16,59,932833,16775373,6890,16749226,23175,16601,7650,9234,Tag0,unknown
1.5676E+12,0,58,1.27E-05,94,21,59,91611,20142,3280,4354,21824,18199,19940,8548,Tag0,unknown
1.5676E+12,0,83,1.82E-05,100,37,59,16755291,21010,2643,22195,6950,23583,8849,8531,Tag0,unknown
1.5676E+12,0,96,2.11E-05,100,30,36,503661,26712,3222,20103,29307,31405,10465,5035,Tag0,unknown
1.5676E+12,0,-291,-6.39E-05,100,30,36,19916,25819,3228,13930,3874,11543,15836,4755,Tag0,unknown
1.5676E+12,0,12,2.64E-06,87,27,39,69850,220465,3502,10123,24317,19242,13463,2003,Tag0,unknown
1.5676E+12,0,54,1.19E-05,66,16,39,2182474,62771,13287,8280,15043,16492,20212,4901,Tag0,unknown
1.5676E+12,0,38,8.35E-06,66,23,39,69340,6981,3306,2565,3393,9975,5324,2632,Tag0,unknown
1.5676E+12,0,-128,-2.81E-05,70,27,39,16746414,17635,15420,4402,6057,18102,25996,11265,Tag0,unknown
1.5676E+12,0,32,7.03E-06,100,30,39,16771241,16763062,2306,2887,6723,16748504,15129,9750,Tag0,unknown
1.5676E+12,0,17,3.74E-06,100,48,39,16760267,22188,17089,11706,21478,16594,10088,6100,Tag0,unknown
1.5676E+12,0,39,8.57E-06,100,54,39,82405,25860,12785,15483,6401,23510,10245,9916,Tag0,unknown
1.5676E+12,0,93,2.04E-05,97,48,39,30394,16755069,12879,7429,18796,17365,10323,3047,Tag0,unknown
1.5676E+12,0,90,1.98E-05,96,75,39,90507,14232,8512,13462,6805,24407,21273,11815,Tag0,unknown
1.5676E+12,0,-283,-6.22E-05,91,77,39,16772145,16755859,25820,20573,13014,20995,18384,2694,Tag0,unknown
1.5676E+12,0,34,7.47E-06,100,70,39,16761351,10144,10473,8322,9146,16748560,3220,5426,Tag0,unknown
1.5676E+12,0,39,8.57E-06,100,83,39,255036,20625,19012,11660,7885,27980,30600,7292,Tag0,unknown
1.5676E+12,0,36,7.91E-06,81,83,39,114791,93973,12492,16759062,8993,22803,11133,4696,Tag0,unknown
1.5676E+12,0,-262,-5.76E-05,80,70,39,15499,16752108,10070,8027,10561,16687,12689,7865,Tag0,unknown
1.5676E+12,0,55,1.21E-05,54,88,39,569771,27108,5263,97227,5796,19221,13759,3650,Tag0,unknown
1.5676E+12,0,57,1.25E-05,43,87,39,51838,16772364,16749141,17571,5086,21662,23978,10460,Tag0,unknown
1.5676E+12,0,5,1.10E-06,48,84,39,23253,68181,15210,16756421,22330,31333,3603,2826,Tag0,unknown
1.5676E+12,0,-358,-7.87E-05,37,100,39,16767622,16536,19178,16502,8516,5258,4649,9787,Tag0,unknown
1.5676E+12,0,-330,-7.25E-05,30,84,39,16756760,14747,2484,7967,1722,2586,1860,281,Tag0,unknown
1.5676E+12,0,5,1.10E-06,29,81,46,16762271,16763118,16064,21232,15679,11419,4777,6238,Tag0,unknown
1.5676E+12,0,73,1.60E-05,20,91,46,61343,7352,2387,10317,1169,2025,1181,1958,Tag0,unknown
1.5676E+12,0,72,1.58E-05,27,75,46,732856,93535,13688,25109,23786,27763,12581,5383,Tag0,unknown
1.5676E+12,0,12,2.64E-06,44,69,42,886111,16748551,4001,27999,21954,16744419,10689,8979,Tag0,unknown
1.5676E+12,0,20,4.39E-06,44,67,42,172603,14119,4469,2861,1353,2537,1357,911,Tag0,unknown
1.5676E+12,0,-251,-5.52E-05,40,50,41,51178,16763005,8098,4962,2620,5003,4656,2043,Tag0,unknown
1.5676E+12,0,16,3.52E-06,35,56,39,66036,16745439,8878,11887,5495,6928,8233,1812,Tag0,unknown
1.5676E+12,0,38,8.35E-06,30,57,39,27279,30387,5953,24986,21033,22841,29230,14201,Tag0,unknown
1.5676E+12,0,33,7.25E-06,40,67,39,63095,16747730,16768697,31568,16557,16747117,15950,4664,Tag0,unknown
1.5676E+12,0,-179,-3.93E-05,48,63,38,105091,157453,17173,13181,12963,26817,10042,6582,Tag0,unknown
1.5676E+12,0,-294,-6.46E-05,53,66,44,497782,85315,82460,10199,15654,16748006,14561,8938,Tag0,unknown
1.5676E+12,0,25,5.49E-06,56,54,44,391732,84323,5184,18906,16744654,16758686,17342,2682,Tag0,unknown
1.5676E+12,0,42,9.23E-06,69,37,44,16752205,23472,3758,16091,21573,16749038,15809,5304,Tag0,unknown
1.5676E+12,0,11,2.42E-06,66,47,44,16756441,64980,16754464,13448,20765,21031,29368,24695,Tag0,unknown
1.5676E+12,0,10,2.20E-06,57,35,55,315499,16760026,9909,5144,8165,6630,8848,2909,Tag0,unknown
1.5676E+12,0,40,8.79E-06,47,44,55,270691,158093,16757763,26225,28654,16744698,17876,4929,Tag0,unknown
1.5676E+12,0,74,1.63E-05,30,60,55,33188,16757711,81933,17045,32324,16746903,16744450,11880,Tag0,unknown
1.5676E+12,0,-77,-1.69E-05,48,61,55,48057,28196,6981,20518,18065,28092,22191,20021,Tag0,unknown
1.5676E+12,0,17,3.74E-06,54,67,55,16768718,86240,16748843,22702,18453,25533,12832,7644,Tag0,unknown
1.5676E+12,0,-264,-5.80E-05,67,77,55,11998,16749318,16754593,16745383,23845,16769710,15481,5616,Tag0,unknown
1.5676E+12,0,9,1.98E-06,63,60,55,86444,20773,1793,3791,5366,3760,3967,1484,Tag0,unknown
1.5676E+12,0,65,1.43E-05,64,57,55,16769562,20387,3649,11448,9711,22081,16959,12669,Tag0,unknown
1.5676E+12,0,60,1.32E-05,75,57,55,16748187,25030,15479,11634,10264,21373,24584,5844,Tag0,unknown
1.5676E+12,0,4,8.79E-07,54,29,39,795268,238082,3994,5721,16757914,26242,30793,10633,Tag0,unknown
timestampMs,poorSignal,eegRawValue,eegRawValueVolts,attention,meditation,blinkStrength,delta,theta,alphaLow,alphaHigh,betaLow,betaHigh,gammaLow,gammaMid,tagEvent,location
1.56759E+12,0,20,4.39E-06,0,0,37,68772,31071,6704,3772,6589,9014,1156,1307,Tag0,unknown
1.56759E+12,0,44,9.67E-06,0,0,37,16770403,6173,19851,11308,8312,17908,11631,3328,Tag0,unknown
1.56759E+12,0,-327,-7.19E-05,0,0,37,16766023,16754328,16761700,9748,17785,16923,15108,6340,Tag0,unknown
1.56759E+12,0,-52,-1.14E-05,41,30,37,279124,73675,16488,4539,14309,24991,12027,9038,Tag0,unknown
1.56759E+12,0,83,1.82E-05,29,37,36,337221,76884,13168,16759973,19887,22181,8619,3729,Tag0,unknown
1.56759E+12,0,39,8.57E-06,40,29,36,75651,25607,5250,5978,12890,14754,14285,6755,Tag0,unknown
1.56759E+12,0,8,1.76E-06,63,34,36,16756458,8575,5889,17926,18301,30153,5216,5347,Tag0,unknown
1.56759E+12,0,65,1.43E-05,60,43,36,318705,16755893,17161,16126,15873,21571,10571,5851,Tag0,unknown
1.56759E+12,0,49,1.08E-05,87,29,36,58434,11343,4320,4632,21978,12279,26459,2204,Tag0,unknown
1.56759E+12,0,42,9.23E-06,100,34,36,16770059,19582,9865,7587,11727,16744437,16858,6164,Tag0,unknown
1.56759E+12,0,34,7.47E-06,75,37,36,16758508,16763806,19255,29895,13273,27808,7619,9254,Tag0,unknown
1.56759E+12,0,66,1.45E-05,100,34,36,11586,17885,11623,13096,9843,16752944,12990,4710,Tag0,unknown
1.56759E+12,0,84,1.85E-05,97,40,36,16760549,29897,21452,4551,25497,28697,14986,11245,Tag0,unknown
1.56759E+12,0,89,1.96E-05,93,43,36,16768736,14179,3921,18112,11565,27878,13758,4312,Tag0,unknown
1.56759E+12,0,123,2.70E-05,100,47,36,16764753,6943,15559,5630,9234,16286,18652,7050,Tag0,unknown
1.56759E+12,0,65,1.43E-05,70,41,36,318488,52060,27771,14187,31347,18624,24507,8896,Tag0,unknown
1.56759E+12,0,11,2.42E-06,81,40,36,1063944,8362,3024,15472,28850,16751954,6326,3661,Tag0,unknown
1.56759E+12,0,-298,-6.55E-05,78,37,36,16761348,5067,6046,15709,16745057,24331,18758,6303,Tag0,unknown
1.56759E+12,0,-74,-1.63E-05,81,24,36,16772170,9490,2710,17111,16747675,32594,20579,6232,Tag0,unknown
1.56759E+12,0,-285,-6.26E-05,100,37,36,28648,12627,22611,9340,8808,29832,11560,4444,Tag0,unknown
1.56759E+12,0,92,2.02E-05,75,23,36,97147,24025,1784,410,2535,4115,4823,2118,Tag0,unknown
1.56759E+12,0,32,7.03E-06,57,35,36,58009,19972,4986,16749160,14042,19687,11255,9255,Tag0,unknown
1.56759E+12,0,72,1.58E-05,47,51,36,148513,10006,16751734,10844,9259,16745115,23470,8871,Tag0,unknown
1.56759E+12,0,-283,-6.22E-05,30,37,36,343944,16757811,10064,5268,16556,19361,12441,8701,Tag0,unknown
1.56759E+12,0,-257,-5.65E-05,57,54,36,13440,25960,10815,20907,26039,16758833,10234,12798,Tag0,unknown
1.56759E+12,0,100,2.20E-05,83,47,36,25908,15137,22085,18313,16191,16775764,14348,4205,Tag0,unknown
1.56759E+12,0,36,7.91E-06,63,29,36,49374,20135,5591,4442,15740,5601,1515,1134,Tag0,unknown
1.56759E+12,0,-263,-5.78E-05,56,47,36,16762946,16745195,4742,32101,5285,13313,18168,7902,Tag0,unknown
1.56759E+12,0,85,1.87E-05,40,51,36,159788,21189,9246,13933,15927,12170,5275,9656,Tag0,unknown
1.56759E+12,0,41,9.01E-06,11,48,36,297678,69603,10057,25560,9415,23509,13967,22559,Tag0,unknown
1.56759E+12,0,96,2.11E-05,3,47,36,51072,145498,25050,12441,23329,14372,16768893,24788,Tag0,unknown
1.56759E+12,0,-267,-5.87E-05,11,48,36,9955,22482,19062,26991,7689,20048,15583,14216,Tag0,unknown
1.56759E+12,0,58,1.27E-05,29,48,36,7258,18837,14102,12724,8987,16744426,9831,10043,Tag0,unknown
1.56759E+12,0,-69,-1.52E-05,20,61,36,31951,23742,19316,11985,1997,5127,10407,9028,Tag0,unknown
1.56759E+12,0,123,2.70E-05,41,66,36,89838,15006,4646,2555,3739,7243,3884,2096,Tag0,unknown
1.56759E+12,0,2,4.39E-07,29,60,36,92948,47728,12314,16774371,8656,24099,22831,2854,Tag0,unknown
1.56759E+12,0,65,1.43E-05,29,64,36,21924,6735,20538,11118,8592,29519,14712,7620,Tag0,unknown
1.56759E+12,0,102,2.24E-05,57,51,36,16759284,21527,4012,19788,9653,29881,10280,5485,Tag0,unknown
1.56759E+12,0,103,2.26E-05,64,64,36,77296,29607,24903,16770928,20668,16765558,31851,11651,Tag0,unknown
1.56759E+12,0,41,9.01E-06,84,74,36,16770514,10254,25770,23686,9140,29525,18073,6738,Tag0,unknown
1.56759E+12,0,32,7.03E-06,66,60,36,23698,16758666,12954,13303,16746324,17540,8381,9303,Tag0,unknown
1.56759E+12,0,89,1.96E-05,63,60,36,626826,16747363,13337,11879,6896,30440,16816,9135,Tag0,unknown
1.56759E+12,0,83,1.82E-05,48,50,36,16754476,16762565,20346,8861,11642,15183,13556,20421,Tag0,unknown
1.56759E+12,0,28,6.15E-06,43,41,36,5837,23947,13659,25349,25494,24187,19083,5722,Tag0,unknown
1.56759E+12,0,34,7.47E-06,47,57,36,16764790,11493,23742,10380,10335,13720,22759,5377,Tag0,unknown
1.56759E+12,0,5,1.10E-06,48,63,36,21407,19683,9283,21979,10410,28487,20751,11998,Tag0,unknown
1.56759E+12,0,85,1.87E-05,61,66,36,32364,13995,7276,14291,14111,16089,25130,9990,Tag0,unknown
1.56759E+12,0,105,2.31E-05,51,56,36,16755189,16761467,11279,6344,13677,12236,25702,5347,Tag0,unknown
1.56759E+12,0,92,2.02E-05,54,56,36,16757896,14600,31188,9836,9928,22094,22499,5778,Tag0,unknown
1.56759E+12,0,34,7.47E-06,56,51,36,16760677,30985,14269,13962,9811,16746268,24465,7585,Tag0,unknown
1.56759E+12,0,57,1.25E-05,41,56,36,386470,16763147,7351,16762058,8249,16280,15670,8461,Tag0,unknown
1.56759E+12,0,40,8.79E-06,53,74,36,77399,16255,16750992,10930,18242,27119,16750691,7987,Tag0,unknown
1.56759E+12,0,66,1.45E-05,57,60,36,16744512,26653,14121,3372,5996,22474,7511,6399,Tag0,unknown
1.56759E+12,0,26,5.71E-06,51,66,36,530386,27534,10430,26887,6982,25431,24680,7744,Tag0,unknown
1.56759E+12,0,57,1.25E-05,57,51,36,288088,16768517,21446,6167,29368,21925,30025,5162,Tag0,unknown
1.56759E+12,0,52,1.14E-05,57,37,36,202248,30657,4441,7805,4315,15930,3298,5101,Tag0,unknown
1.56759E+12,0,53,1.16E-05,57,41,36,253149,25128,10202,24120,11899,16748405,19142,2267,Tag0,unknown
1.56759E+12,0,73,1.60E-05,63,29,36,242502,14906,1871,9532,13765,14202,20754,13875,Tag0,unknown
1.56759E+12,0,-308,-6.77E-05,80,27,36,23688,28416,15788,5562,32357,16747389,30183,10606,Tag0,unknown
timestampMs,poorSignal,eegRawValue,eegRawValueVolts,attention,meditation,blinkStrength,delta,theta,alphaLow,alphaHigh,betaLow,betaHigh,gammaLow,gammaMid,tagEvent,location
1.56759E+12,25,-12,-2.64E-06,0,0,38,5042,1345,764,716,116,275,38,36,Tag0,unknown
1.56759E+12,25,12,2.64E-06,0,0,38,660137,107494,86257,16762282,17477,22964,24653,27502,Tag0,unknown
1.56759E+12,0,25,5.49E-06,0,0,38,64510,22128,22913,74935,9239,14629,3869,690,Tag0,unknown
1.56759E+12,0,73,1.60E-05,0,0,38,16772973,16771342,16770810,16749187,15622,7159,3509,736,Tag0,unknown
1.56759E+12,0,58,1.27E-05,0,0,38,26902,16757594,21456,16759725,24071,7847,6911,1754,Tag0,unknown
1.56759E+12,0,98,2.15E-05,34,51,38,16764668,29148,16757501,117798,13600,13293,2994,634,Tag0,unknown
1.56759E+12,0,39,8.57E-06,48,60,38,16769432,11007,16754984,49808,20836,21207,9206,3432,Tag0,unknown
1.56759E+12,0,-282,-6.20E-05,43,83,38,16747141,4910,72868,124987,5625,14291,5351,5700,Tag0,unknown
1.56759E+12,0,-273,-6.00E-05,34,80,38,16753873,16769107,16750066,35230,31234,8784,5851,1496,Tag0,unknown
1.56759E+12,0,-258,-5.67E-05,26,63,38,16763409,16750070,16762221,16759388,23633,5695,1998,2128,Tag0,unknown
1.56759E+12,0,27,5.93E-06,13,50,38,48655,16744807,32260,28421,15553,6659,7976,2566,Tag0,unknown
1.56759E+12,0,28,6.15E-06,43,26,38,11849,2051,7653,27312,10699,6889,9065,910,Tag0,unknown
1.56759E+12,0,20,4.39E-06,63,21,38,16749297,17993,2987,27441,6710,4682,5058,1736,Tag0,unknown
1.56759E+12,0,17,3.74E-06,66,27,38,16749308,16762125,873,141637,3728,7715,8413,1282,Tag0,unknown
1.56759E+12,0,-269,-5.91E-05,53,24,38,562665,81400,12855,66438,7682,6610,1170,1850,Tag0,unknown
1.56759E+12,0,50,1.10E-05,35,17,38,16766317,16755800,2155,16771772,5843,8806,5083,1565,Tag0,unknown
1.56759E+12,0,43,9.45E-06,35,29,38,16774210,15931,3751,71817,4180,9921,2690,937,Tag0,unknown
1.56759E+12,0,20,4.39E-06,38,30,38,15424,30287,16758578,16770586,6294,7301,2861,2972,Tag0,unknown
1.56759E+12,0,51,1.12E-05,50,50,38,15626,20836,8070,134911,5327,11753,4370,1814,Tag0,unknown
1.56759E+12,0,86,1.89E-05,53,63,38,16536,17218,16745658,76380,6434,12594,4185,2025,Tag0,unknown
1.56759E+12,0,-296,-6.50E-05,53,56,38,27826,13415,8383,16759144,12932,7109,4057,2007,Tag0,unknown
1.56759E+12,0,22,4.83E-06,60,60,38,26007,14466,20211,97117,8940,9451,6040,2386,Tag0,unknown
1.56759E+12,0,-107,-2.35E-05,53,53,38,16755424,16745219,11001,84024,6284,6767,3896,2959,Tag0,unknown
1.56759E+12,0,66,1.45E-05,63,43,38,16752591,29270,21353,69376,17593,17394,3152,1055,Tag0,unknown
1.56759E+12,0,39,8.57E-06,77,44,38,11832,15117,11230,16755147,4848,12335,4255,2059,Tag0,unknown
1.56759E+12,0,39,8.57E-06,88,43,38,4578,15485,16762018,16773019,6021,14634,4320,2871,Tag0,unknown
1.56759E+12,0,73,1.60E-05,88,56,38,16766165,8778,4453,159784,13058,8760,5686,1597,Tag0,unknown
1.56759E+12,0,-268,-5.89E-05,78,60,38,25827,23235,2106,87643,11144,10732,4029,1433,Tag0,unknown
1.56759E+12,0,20,4.39E-06,66,51,38,65962,16773705,20229,16767284,10343,15053,2919,2369,Tag0,unknown
1.56759E+12,0,103,2.26E-05,35,56,38,16003,18322,17664,59304,8312,4344,5545,751,Tag0,unknown
1.56759E+12,0,-264,-5.80E-05,50,41,38,23032,19278,13894,16762627,10578,8346,6405,3673,Tag0,unknown
1.56759E+12,0,55,1.21E-05,40,44,38,9230,32538,30663,82303,4229,8483,3986,1762,Tag0,unknown
1.56759E+12,0,74,1.63E-05,37,50,38,11325,16758720,21563,79443,9185,15110,2892,2450,Tag0,unknown
1.56759E+12,0,36,7.91E-06,53,40,38,16763562,22722,13097,66692,9944,6438,6764,4702,Tag0,unknown
1.56759E+12,0,82,1.80E-05,41,34,38,16751843,16772977,16752954,16752080,10596,8236,7194,1029,Tag0,unknown
1.56759E+12,0,40,8.79E-06,57,24,38,16753353,29964,4923,16757300,5124,9481,2899,2351,Tag0,unknown
1.56759E+12,0,33,7.25E-06,48,24,38,14933,16748579,11785,85140,24148,8183,4080,3109,Tag0,unknown
1.56759E+12,0,11,2.42E-06,43,24,38,16767321,17909,4656,87605,20982,5063,6776,7903,Tag0,unknown
1.56759E+12,0,23,5.05E-06,30,29,38,28293,16764025,16762543,69673,21041,6128,5571,4344,Tag0,unknown
1.56759E+12,0,64,1.41E-05,41,34,38,15542,7073,32599,29617,13419,22646,3154,2863,Tag0,unknown
1.56759E+12,0,41,9.01E-06,38,48,38,23508,12198,29832,73275,4519,7480,6248,1984,Tag0,unknown
1.56759E+12,0,83,1.82E-05,26,56,38,16774997,24609,14425,116521,7946,5342,5347,648,Tag0,unknown
1.56759E+12,0,42,9.23E-06,26,41,38,16767739,135650,17164,16747705,9715,6185,2878,3137,Tag0,unknown
1.56759E+12,0,75,1.65E-05,7,44,38,18552,29760,16075,84209,7962,13011,3730,2937,Tag0,unknown
1.56759E+12,0,60,1.32E-05,13,23,38,64097,16699,2194,12454,5416,2600,1607,857,Tag0,unknown
1.56759E+12,0,10,2.20E-06,41,4,38,95969,18851,7059,28347,6858,7988,5753,1442,Tag0,unknown
1.56759E+12,0,41,9.01E-06,60,20,38,16757919,30006,4122,16759814,5860,8233,10523,1130,Tag0,unknown
1.56759E+12,0,53,1.16E-05,64,1,38,76086,76731,13480,8044,12379,13332,5799,3228,Tag0,unknown
1.56759E+12,0,76,1.67E-05,53,13,38,16752472,16751401,18238,88508,23467,5020,6992,1013,Tag0,unknown
1.56759E+12,0,65,1.43E-05,56,23,38,60725,5114,4082,14407,1771,3972,1163,1081,Tag0,unknown
1.56759E+12,0,49,1.08E-05,53,23,38,14563,16748516,28630,15538,7557,6348,5450,2333,Tag0,unknown
1.56759E+12,0,-103,-2.26E-05,63,37,38,16772335,14779,3909,24873,12087,11371,4251,4351,Tag0,unknown
1.56759E+12,0,50,1.10E-05,78,16,38,57929,35376,7398,20272,8882,11348,7517,2703,Tag0,unknown
1.56759E+12,0,75,1.65E-05,75,7,38,17964,28296,3377,24691,5178,8120,2464,1768,Tag0,unknown
1.56759E+12,0,58,1.27E-05,90,7,38,16744939,10088,8584,6759,4128,4693,7080,4249,Tag0,unknown
1.56759E+12,0,56,1.23E-05,75,16,38,28146,8895,4927,16749997,6886,5632,1716,462,Tag0,unknown
1.56759E+12,0,22,4.83E-06,78,38,38,16775192,7248,7298,31605,9904,4757,6707,3204,Tag0,unknown
1.56759E+12,0,38,8.35E-06,81,41,38,11479,16501,3597,16744758,8057,9551,10453,2728,Tag0,unknown
1.56759E+12,0,67,1.47E-05,69,47,38,16746082,16747924,10341,16764292,5773,9099,3990,2314,Tag0,unknown
timestampMs,poorSignal,eegRawValue,eegRawValueVolts,attention,meditation,blinkStrength,delta,theta,alphaLow,alphaHigh,betaLow,betaHigh,gammaLow,gammaMid,tagEvent,location
1.56759E+12,25,90,1.98E-05,0,0,45,11537,7742,2037,221,534,16777145,118,78,Tag0,unknown
1.56759E+12,25,-283,-6.22E-05,0,0,45,49643,31241,19067,18335,6721,6066,4627,5505,Tag0,unknown
1.56759E+12,0,56,1.23E-05,0,0,46,156792,54734,16749840,16748281,15054,16280,14029,11585,Tag0,unknown
1.56759E+12,0,-126,-2.77E-05,0,0,46,24138,16746928,16769956,126691,28998,9530,10345,3079,Tag0,unknown
1.56759E+12,0,25,5.49E-06,0,0,46,42073,28759,10430,77517,13772,10655,4774,8156,Tag0,unknown
1.56759E+12,0,85,1.87E-05,50,44,46,16770926,29111,28430,16757605,3294,8660,3903,1394,Tag0,unknown
1.56759E+12,0,32,7.03E-06,50,48,46,93028,16759708,16757647,29391,5316,6686,5460,4604,Tag0,unknown
1.56759E+12,0,35,7.69E-06,69,51,46,7584,25000,7425,16772071,13460,12599,7949,6574,Tag0,unknown
1.56759E+12,0,-93,-2.04E-05,80,48,46,107091,15239,5468,11434,6088,2443,2897,1214,Tag0,unknown
1.56759E+12,0,105,2.31E-05,91,35,46,8748,32321,16446,18553,10239,19063,5736,2402,Tag0,unknown
1.56759E+12,0,99,2.18E-05,94,43,46,8498,12222,26579,16748279,5356,6480,12148,2472,Tag0,unknown
1.56759E+12,0,108,2.37E-05,80,44,46,90864,26814,16753190,67505,21245,12774,13344,2463,Tag0,unknown
1.56759E+12,0,93,2.04E-05,66,53,46,66940,19210,17491,86627,16746240,6261,4771,1844,Tag0,unknown
1.56759E+12,0,40,8.79E-06,47,66,46,16763074,25016,5704,73285,10663,7821,10349,3107,Tag0,unknown
1.56759E+12,0,10,2.20E-06,47,57,46,16768681,31968,16758638,16765735,16746527,10906,3995,3138,Tag0,unknown
1.56759E+12,0,103,2.26E-05,41,69,46,16747372,5929,16748412,66958,6032,7283,6481,4388,Tag0,unknown
1.56759E+12,0,-115,-2.53E-05,61,53,46,16973,16748435,11945,6849,12359,8651,5431,1390,Tag0,unknown
1.56759E+12,0,-275,-6.04E-05,56,56,46,225491,23552,97149,15389,10569,7605,4532,6706,Tag0,unknown
1.56759E+12,0,26,5.71E-06,50,64,46,80117,28181,81556,65681,16199,8853,3326,2687,Tag0,unknown
1.56759E+12,0,27,5.93E-06,63,48,46,16767255,9593,16472,19211,13308,6847,2012,487,Tag0,unknown
1.56759E+12,0,32,7.03E-06,56,61,46,57842,16747053,9722,16766838,10936,11215,9053,4204,Tag0,unknown
1.56759E+12,0,5,1.10E-06,63,60,46,15376,26407,3749,92707,2808,11930,6651,2724,Tag0,unknown
1.56759E+12,0,58,1.27E-05,60,60,46,16758544,16749270,12754,107143,14306,8780,7206,3429,Tag0,unknown
1.56759E+12,0,19,4.17E-06,47,70,46,16010,8373,20689,81208,13646,7485,6818,2073,Tag0,unknown
1.56759E+12,0,91,2.00E-05,47,63,46,343859,17863,9488,8769,10447,3962,2160,572,Tag0,unknown
1.56759E+12,0,32,7.03E-06,50,60,46,41777,13670,11069,15829,2014,3958,676,172,Tag0,unknown
1.5676E+12,0,50,1.10E-05,56,53,46,26241,16753096,73945,16765340,16701,10841,6241,1280,Tag0,unknown
1.5676E+12,0,82,1.80E-05,57,38,46,16747473,16768224,4811,16767953,14245,8684,3865,2165,Tag0,unknown
1.5676E+12,0,-262,-5.76E-05,38,64,46,24145,20479,16765291,218674,16050,8171,5733,5524,Tag0,unknown
1.5676E+12,0,-273,-6.00E-05,40,66,46,19155,18157,24576,16745404,10172,9112,6367,1288,Tag0,unknown
1.5676E+12,0,75,1.65E-05,37,80,46,16748333,13203,17999,120002,6978,10994,7762,1938,Tag0,unknown
1.5676E+12,0,85,1.87E-05,34,88,46,13332,14810,8945,69463,15782,5768,8443,2035,Tag0,unknown
1.5676E+12,0,-124,-2.72E-05,40,63,46,72115,58509,21213,16774933,26760,9652,4527,3394,Tag0,unknown
1.5676E+12,0,-119,-2.61E-05,37,64,46,88611,16267,12839,16775192,11419,8614,4246,3985,Tag0,unknown
1.5676E+12,0,19,4.17E-06,40,54,46,21736,16765100,32201,134260,13243,12708,6144,9795,Tag0,unknown
1.5676E+12,0,49,1.08E-05,38,61,46,16127,12870,16747588,84923,11637,7726,4097,3650,Tag0,unknown
1.5676E+12,0,32,7.03E-06,35,81,46,16751745,19742,76665,28859,1673,5108,3690,1618,Tag0,unknown
1.5676E+12,0,81,1.78E-05,44,77,46,13715,32608,1530,66194,9290,17371,2009,2994,Tag0,unknown
1.5676E+12,0,28,6.15E-06,44,77,46,14229,16748898,16148,47417,6188,9607,4188,403,Tag0,unknown
1.5676E+12,0,19,4.17E-06,56,66,46,16224,21379,6579,16763957,12801,9319,4736,5919,Tag0,unknown
1.5676E+12,0,107,2.35E-05,56,70,46,19319,7045,88076,16770272,11961,6148,5762,1503,Tag0,unknown
1.5676E+12,0,72,1.58E-05,44,83,46,12010,14194,9926,49597,11612,11623,2320,3897,Tag0,unknown
1.5676E+12,0,-277,-6.09E-05,43,83,46,16745982,24854,22566,65789,6205,5665,3410,1961,Tag0,unknown
1.5676E+12,0,-262,-5.76E-05,35,94,46,16762659,14817,16746193,65370,9974,13455,3024,1556,Tag0,unknown
1.5676E+12,0,-268,-5.89E-05,51,78,46,16746901,14214,3775,16755280,11175,7443,6114,2239,Tag0,unknown
1.5676E+12,0,118,2.59E-05,54,77,46,16753686,13646,13156,16771705,3789,8102,9550,3893,Tag0,unknown
1.5676E+12,0,91,2.00E-05,60,77,46,23935,22256,27825,16766680,11025,6785,1252,1637,Tag0,unknown
1.5676E+12,0,57,1.25E-05,57,69,46,65431,25407,10986,63883,17026,11481,8457,3848,Tag0,unknown
1.5676E+12,0,70,1.54E-05,48,75,46,28894,16754372,8397,57241,13706,10431,3174,4115,Tag0,unknown
1.5676E+12,0,0,0,37,75,46,5111,18093,21192,78621,13623,6041,5482,4288,Tag0,unknown
1.5676E+12,0,0,0,29,83,46,9573,7721,21702,132367,16228,6963,2366,3293,Tag0,unknown
1.5676E+12,0,-265,-5.82E-05,30,81,46,30425,16748430,18231,63153,10630,13448,5185,6440,Tag0,unknown
1.5676E+12,0,105,2.31E-05,35,88,46,12789,14950,18374,43798,8602,10957,7444,2027,Tag0,unknown
1.5676E+12,0,39,8.57E-06,50,80,46,459897,20238,7446,16752349,10174,8905,5952,4119,Tag0,unknown
1.5676E+12,0,49,1.08E-05,77,69,46,16765783,4705,6265,24657,2015,8730,7246,2880,Tag0,unknown
1.5676E+12,0,-292,-6.42E-05,90,51,46,30937,16748783,10081,11201,4337,10672,3509,2428,Tag0,unknown
1.5676E+12,0,29,6.37E-06,87,27,46,66326,133978,22237,16765166,11985,11200,8384,1777,Tag0,unknown
1.5676E+12,0,55,1.21E-05,69,21,46,81085,88702,16766011,9815,8864,6930,6846,987,Tag0,unknown
1.5676E+12,0,21,4.61E-06,69,1,46,50273,8336,2586,1527,2035,3024,685,1062,Tag0,unknown
timestampMs,poorSignal,eegRawValue,eegRawValueVolts,attention,meditation,blinkStrength,delta,theta,alphaLow,alphaHigh,betaLow,betaHigh,gammaLow,gammaMid,tagEvent,location
1.56759E+12,25,-257,-5.65E-05,0,0,41,291674,82217,7570,4148,11419,13198,3031,5333,Tag0,unknown
1.56759E+12,0,-112,-2.46E-05,0,0,41,202719,27492,11596,19854,9912,15698,4505,6466,Tag0,unknown
1.56759E+12,0,50,1.10E-05,0,0,38,969883,16766412,3037,19669,27866,28996,17496,3628,Tag0,unknown
1.56759E+12,0,83,1.82E-05,0,0,38,32121,17403,1081,9155,17764,23090,16354,7232,Tag0,unknown
1.56759E+12,0,17,3.74E-06,44,34,38,23919,10747,1733,2674,6410,8353,13304,5144,Tag0,unknown
1.56759E+12,0,56,1.23E-05,43,38,38,16748697,16759687,22459,9965,12507,29651,6484,8332,Tag0,unknown
1.56759E+12,0,-274,-6.02E-05,27,27,38,220231,84493,1376,14797,6689,19860,13235,3919,Tag0,unknown
1.56759E+12,0,59,1.30E-05,16,14,39,565320,78039,7825,6102,22599,21328,8913,1465,Tag0,unknown
1.56759E+12,0,67,1.47E-05,1,44,39,47330,29312,73237,30600,4450,5897,14926,5944,Tag0,unknown
1.56759E+12,0,32,7.03E-06,1,47,39,16747090,13882,7824,21807,14596,10644,21577,1935,Tag0,unknown
1.56759E+12,0,34,7.47E-06,4,80,39,578699,27912,1340,154579,4398,18466,10989,1483,Tag0,unknown
1.56759E+12,0,98,2.15E-05,3,100,39,12582,16753881,9507,46941,17709,9109,6629,5058,Tag0,unknown
1.56759E+12,0,70,1.54E-05,10,93,39,16751162,16772451,7189,16765047,4974,7742,6011,869,Tag0,unknown
1.56759E+12,0,35,7.69E-06,1,100,39,25551,16745126,26782,43053,13976,7719,7741,6146,Tag0,unknown
1.56759E+12,0,48,1.05E-05,1,100,39,20563,20945,16776689,64469,4228,13365,5328,2518,Tag0,unknown
1.56759E+12,0,97,2.13E-05,1,93,39,657868,58520,6064,89597,15061,15382,6259,30320,Tag0,unknown
