timestampMs,poorSignal,eegRawValue,eegRawValueVolts,attention,meditation,blinkStrength,delta,theta,alphaLow,alphaHigh,betaLow,betaHigh,gammaLow,gammaMid,tagEvent,location
1.56667E+12,0,-122,-2.68E-05,57,38,0,11571,15405,11656,8476,16611,8343,24760,9544,Tag0,unknown
1.56667E+12,0,9,1.98E-06,81,35,0,16772966,16750924,3275,22420,24634,29012,14554,6845,Tag0,unknown
1.56667E+12,0,-333,-7.32E-05,100,37,0,16757827,23629,7870,15469,22381,14748,5864,1557,Tag0,unknown
1.56667E+12,0,276,6.06E-05,100,35,0,449035,16749815,8305,8415,26449,20241,11823,8402,Tag0,unknown
1.56667E+12,0,38,8.35E-06,100,16,0,1037028,16747255,9750,3545,17236,9798,32346,15706,Tag0,unknown
1.56667E+12,0,-362,-7.95E-05,70,3,0,98347,16774693,222,3610,4759,3832,2182,4984,Tag0,unknown
1.56667E+12,0,50,1.10E-05,56,1,38,834307,82708,3158,2610,5356,11372,1944,2105,Tag0,unknown
1.56667E+12,0,-308,-6.77E-05,54,10,39,459129,32025,22941,32052,16984,28275,21212,6686,Tag0,unknown
1.56667E+12,0,8,1.76E-06,44,17,39,143426,63210,3842,28178,25630,17565,22247,11461,Tag0,unknown
1.56667E+12,0,26,5.71E-06,75,50,39,39230,16747886,12942,16749252,31030,28470,16053,5196,Tag0,unknown
1.56667E+12,0,74,1.63E-05,63,70,39,57626,16761716,1592,16692,8041,4709,5013,1252,Tag0,unknown
1.56667E+12,0,2,4.39E-07,69,54,39,57113,10049,1542,2045,2032,7098,4674,2203,Tag0,unknown
1.56667E+12,0,64,1.41E-05,93,54,39,31013,13410,2640,11177,21628,16745721,15858,4160,Tag0,unknown
1.56667E+12,0,-261,-5.73E-05,100,43,39,16776770,5205,11233,3509,27975,27272,22922,14109,Tag0,unknown
1.56667E+12,0,38,8.35E-06,100,27,39,445560,16748837,2545,3947,12712,27717,6956,3193,Tag0,unknown
1.56667E+12,0,83,1.82E-05,100,24,39,7651,13879,3969,7757,9165,16758043,14320,16859,Tag0,unknown
1.56667E+12,0,32,7.03E-06,100,35,39,43120,16749934,12532,31407,22959,16748494,10631,13005,Tag0,unknown
1.56667E+12,0,-107,-2.35E-05,100,34,39,5604,9910,8398,5842,16042,16748763,10395,5848,Tag0,unknown
1.56667E+12,0,-278,-6.11E-05,100,30,39,802522,76183,8413,1961,15335,16750868,16758390,11813,Tag0,unknown
1.56667E+12,0,41,9.01E-06,93,30,39,21402,20434,7125,3768,11377,16747718,15356,7640,Tag0,unknown
1.56667E+12,0,-99,-2.18E-05,100,21,39,143155,3142,916,2588,4521,9478,2046,6630,Tag0,unknown
1.56667E+12,0,18,3.96E-06,93,23,39,109444,16751556,13760,12337,26901,16745983,16746516,14986,Tag0,unknown
1.56667E+12,0,42,9.23E-06,70,20,39,74736,75299,3135,1708,5874,4261,7632,2173,Tag0,unknown
1.56667E+12,0,27,5.93E-06,47,47,39,574592,16745413,79056,76892,20367,22172,16763964,11986,Tag0,unknown
1.56667E+12,0,-372,-8.17E-05,24,61,39,16762411,16748567,29500,16761958,25182,23982,17789,5545,Tag0,unknown
1.56667E+12,0,84,1.85E-05,13,53,37,217817,129424,21475,23010,26890,16750007,16750224,11252,Tag0,unknown
1.56667E+12,0,82,1.80E-05,10,70,37,66221,16776155,14402,3074,4509,3621,5346,6048,Tag0,unknown
1.56667E+12,0,-298,-6.55E-05,30,54,37,10590,13698,15623,16524,10565,16748879,19697,15953,Tag0,unknown
1.56667E+12,0,-124,-2.72E-05,41,37,37,26062,16759906,12566,7778,18760,30618,26029,21097,Tag0,unknown
1.56667E+12,0,-285,-6.26E-05,54,37,37,67746,24736,9904,1420,26727,20493,21821,11489,Tag0,unknown
1.56667E+12,0,42,9.23E-06,87,20,37,431954,92955,2805,7962,31245,74459,13085,7269,Tag0,unknown
1.56667E+12,0,122,2.68E-05,94,8,37,22488,20086,9528,16797,19333,94850,14179,15907,Tag0,unknown
1.56667E+12,0,7,1.54E-06,91,7,40,423542,93509,3949,24862,25968,16748967,31503,17785,Tag0,unknown
1.56667E+12,0,67,1.47E-05,70,3,40,593025,84528,3627,8494,5728,8684,9204,5609,Tag0,unknown
1.56667E+12,0,113,2.48E-05,61,24,40,271060,16756526,16965,18382,24135,26288,28640,9617,Tag0,unknown
1.56667E+12,0,105,2.31E-05,38,40,37,737272,71067,80826,11652,25164,16752033,16751274,8940,Tag0,unknown
1.56667E+12,0,120,2.64E-05,51,50,37,344230,27890,28995,31460,29396,85097,16746433,16665,Tag0,unknown
1.56667E+12,0,8,1.76E-06,77,54,37,136273,16776213,9690,21669,23069,88196,19302,26758,Tag0,unknown
1.56667E+12,0,6,1.32E-06,60,40,37,113229,86965,5043,4606,9344,6630,6098,3417,Tag0,unknown
1.56667E+12,0,-121,-2.66E-05,69,35,37,112811,23811,22856,14497,16748189,31340,18263,21479,Tag0,unknown
1.56667E+12,0,36,7.91E-06,43,14,37,515250,229997,15138,12734,66254,27176,16751733,5147,Tag0,unknown
1.56667E+12,0,27,5.93E-06,37,17,37,105627,14802,7470,2737,12474,12257,8508,8146,Tag0,unknown
1.56667E+12,0,55,1.21E-05,61,38,37,34427,16744606,12745,16749009,10356,16769914,20548,8953,Tag0,unknown
1.56667E+12,0,19,4.17E-06,56,34,37,871124,69972,4561,24086,11354,16745026,66375,9265,Tag0,unknown
1.56667E+12,0,-295,-6.48E-05,74,47,37,91744,16775133,21324,7882,20546,16748483,16747206,5467,Tag0,unknown
1.56667E+12,0,10,2.20E-06,69,51,37,98058,21036,8738,6628,6342,12205,11813,4554,Tag0,unknown
1.56667E+12,0,-299,-6.57E-05,43,38,37,302913,262240,24580,26342,23555,22260,14479,11369,Tag0,unknown
1.56667E+12,0,45,9.89E-06,35,26,37,209197,16762538,1739,4265,5523,8504,7386,2588,Tag0,unknown
1.56667E+12,0,-285,-6.26E-05,38,23,37,908628,16754787,8600,13582,23286,16757362,28652,12149,Tag0,unknown
1.56667E+12,0,106,2.33E-05,56,16,37,7453,9414,11589,11540,16526,66413,21670,16752607,Tag0,unknown
1.56667E+12,0,16,3.52E-06,84,24,37,10193,23010,5531,22473,15626,16758622,16749442,9806,Tag0,unknown
1.56667E+12,0,-110,-2.42E-05,93,40,37,470914,71915,6539,16752359,18930,16747884,21703,8614,Tag0,unknown
1.56667E+12,0,-372,-8.17E-05,84,50,37,418507,72261,16752342,14255,19292,16749290,30613,17082,Tag0,unknown
1.56667E+12,0,16,3.52E-06,44,47,35,582522,747832,133177,12609,27369,16757632,16757462,11190,Tag0,unknown
1.56667E+12,0,33,7.25E-06,29,48,35,56752,10796,3193,3088,748,3908,1822,406,Tag0,unknown
1.56667E+12,0,100,2.20E-05,21,26,35,130778,33144,620,5769,5250,12595,8661,4886,Tag0,unknown
1.56667E+12,0,-306,-6.72E-05,37,24,35,16760051,8696,8426,13919,9860,16752105,29824,28526,Tag0,unknown
1.56667E+12,0,60,1.32E-05,69,29,35,16769574,11520,4801,17808,21064,16753986,27440,9596,Tag0,unknown
1.56667E+12,0,85,1.87E-05,93,11,35,5630,11600,1730,4227,12250,16770702,15799,9257,Tag0,unknown
timestampMs,poorSignal,eegRawValue,eegRawValueVolts,attention,meditation,blinkStrength,delta,theta,alphaLow,alphaHigh,betaLow,betaHigh,gammaLow,gammaMid,tagEvent,location
1.56759E+12,51,-498,-1.09E-04,0,0,107,1536776,85802,4154,15912,10624,3812,1925,794,Tag0,unknown
1.56759E+12,51,377,8.28E-05,0,0,107,1536776,85802,4154,15912,10624,3812,1925,794,Tag0,unknown
1.56759E+12,0,-557,-1.22E-04,0,0,107,910343,11982,994,13694,4573,5286,3358,985,Tag0,unknown
1.56759E+12,0,693,1.52E-04,0,0,107,1366252,23899,3792,4007,7192,3880,736,852,Tag0,unknown
1.56759E+12,26,-187,-4.11E-05,0,0,121,574863,16746051,8526,1218,1578,1426,141,296,Tag0,unknown
1.56759E+12,0,-106,-2.33E-05,0,0,54,804958,6354,14316,6688,8539,2730,1757,1281,Tag0,unknown
1.56759E+12,0,3,6.59E-07,30,60,45,1532941,262126,286654,88279,16755240,16762832,16766200,11074,Tag0,unknown
1.56759E+12,0,-142,-3.12E-05,21,51,38,1277972,199927,16757536,26968,9425,22903,19421,6369,Tag0,unknown
1.56759E+12,0,90,1.98E-05,13,51,37,149694,10566,4454,1127,2523,1609,1493,416,Tag0,unknown
1.56759E+12,0,-291,-6.39E-05,13,51,37,149694,10566,4454,1127,2523,1609,1493,416,Tag0,unknown
1.56759E+12,0,100,2.20E-05,13,51,37,149694,10566,4454,1127,2523,1609,1493,416,Tag0,unknown
1.56759E+12,0,1,2.20E-07,97,1,41,234355,32124,94,4630,4989,9339,4436,2391,Tag0,unknown
1.56759E+12,0,84,1.85E-05,100,10,41,515891,16773785,12100,31417,27056,21630,20367,13028,Tag0,unknown
1.56759E+12,0,-258,-5.67E-05,100,10,41,515891,16773785,12100,31417,27056,21630,20367,13028,Tag0,unknown
1.56759E+12,0,-96,-2.11E-05,56,24,41,727948,18039,4000,6663,10264,18128,4688,3874,Tag0,unknown
1.56759E+12,0,25,5.49E-06,67,29,39,99577,16749540,4730,16748415,6258,16747527,10427,3724,Tag0,unknown
1.56759E+12,0,22,4.83E-06,75,13,39,2022974,522667,16759335,13813,15883,94096,16748466,18333,Tag0,unknown
1.56759E+12,0,-268,-5.89E-05,26,8,40,1942572,93558,5035,16747595,9416,18328,5845,2690,Tag0,unknown
1.56759E+12,0,100,2.20E-05,14,24,41,1936863,179623,16750058,75598,16746796,27365,16766782,10477,Tag0,unknown
1.56759E+12,0,69,1.52E-05,8,29,41,403239,37284,17594,18079,16352,11899,8136,7295,Tag0,unknown
1.56759E+12,0,55,1.21E-05,34,14,41,140535,73212,17402,1340,3997,14540,11421,1859,Tag0,unknown
1.56759E+12,0,96,2.11E-05,47,14,41,385186,144998,17775,16751641,16757253,16747228,30916,13057,Tag0,unknown
1.56759E+12,0,36,7.91E-06,54,27,41,141612,16767375,86701,16749960,16746410,31112,16753610,7363,Tag0,unknown
1.56759E+12,0,43,9.45E-06,54,27,41,141612,16767375,86701,16749960,16746410,31112,16753610,7363,Tag0,unknown
1.56759E+12,0,21,4.61E-06,37,53,35,883557,16770366,93910,6598,25130,30834,27853,5854,Tag0,unknown
1.56759E+12,0,61,1.34E-05,53,40,52,3550567,56576,16772638,65641,16768879,51303,29932,9089,Tag0,unknown
1.56759E+12,0,91,2.00E-05,64,53,43,1443028,72643,56159,72313,16745932,56064,21989,19515,Tag0,unknown
1.56759E+12,0,-100,-2.20E-05,60,26,39,206976,83637,17581,12612,10619,31357,8017,13313,Tag0,unknown
1.56759E+12,0,71,1.56E-05,26,23,38,392295,174212,61385,16763848,20973,22848,16762500,16763897,Tag0,unknown
1.56759E+12,0,-205,-4.50E-05,41,53,45,209806,4604,5733,5892,5277,1669,1629,16777172,Tag0,unknown
1.56759E+12,0,48,1.05E-05,13,38,36,1395262,163453,19697,983,6173,7147,3510,975,Tag0,unknown
1.56759E+12,0,28,6.15E-06,13,38,56,1395262,163453,19697,983,6173,7147,3510,975,Tag0,unknown
1.56759E+12,0,112,2.46E-05,50,11,56,351170,124378,16774889,15430,85901,16776396,25483,9619,Tag0,unknown
1.56759E+12,0,101,2.22E-05,41,29,56,161059,24086,16745304,9232,3403,11502,11738,1791,Tag0,unknown
1.56759E+12,0,42,9.23E-06,53,24,56,465575,41153,5670,4247,6058,9233,8674,5476,Tag0,unknown
1.56759E+12,0,0,0,53,24,56,465575,41153,5670,4247,6058,9233,8674,5476,Tag0,unknown
1.56759E+12,0,29,6.37E-06,57,23,39,53265,25538,11241,13570,3269,10972,3803,2653,Tag0,unknown
1.56759E+12,0,-121,-2.66E-05,64,30,40,16754092,16757304,6203,2448,2503,6424,2531,1936,Tag0,unknown
1.56759E+12,0,-345,-7.58E-05,50,21,42,1511360,467389,29957,16766993,21471,16761133,16761104,22488,Tag0,unknown
1.56759E+12,0,-128,-2.81E-05,53,35,42,1135283,388077,28047,16776734,16752305,16751626,29165,4218,Tag0,unknown
1.56759E+12,0,-269,-5.91E-05,51,40,41,145897,5298,5253,1198,3127,1577,843,16777212,Tag0,unknown
1.56759E+12,0,-257,-5.65E-05,51,40,41,145897,5298,5253,1198,3127,1577,843,16777212,Tag0,unknown
1.56759E+12,0,99,2.18E-05,51,40,41,145897,5298,5253,1198,3127,1577,843,16777212,Tag0,unknown
timestampMs,poorSignal,eegRawValue,eegRawValueVolts,attention,meditation,blinkStrength,delta,theta,alphaLow,alphaHigh,betaLow,betaHigh,gammaLow,gammaMid,tagEvent,location
1.56759E+12,51,1791,3.94E-04,0,0,43,779955,13374,3127,6267,13060,9300,6939,3127,Tag0,unknown
1.56759E+12,51,-1596,-3.51E-04,0,0,43,1551328,16762097,16752452,23204,5507,7560,4872,1867,Tag0,unknown
1.56759E+12,51,1035,2.27E-04,0,0,43,1565739,77085,18379,2653,17989,79128,16763690,4756,Tag0,unknown
1.56759E+12,51,-1522,-3.34E-04,0,0,43,1196289,17255,14950,27182,8665,19867,1733,441,Tag0,unknown
1.56759E+12,51,261,5.73E-05,0,0,43,494967,16747115,3694,6889,3637,3688,1992,1440,Tag0,unknown
1.56759E+12,51,-193,-4.24E-05,0,0,43,1774416,16759730,29466,25358,13957,8783,3933,1467,Tag0,unknown
1.56759E+12,51,1284,2.82E-04,0,0,43,839028,9228,7523,2764,2554,1769,951,317,Tag0,unknown
1.56759E+12,51,-796,-1.75E-04,0,0,43,878890,53224,16765532,16753915,18805,4566,2847,2121,Tag0,unknown
1.56759E+12,51,1785,3.92E-04,0,0,43,1059984,5809,1858,3269,638,1506,1024,130,Tag0,unknown
1.56759E+12,51,-932,-2.05E-04,0,0,43,1085584,16770315,6614,3879,2241,6943,3513,467,Tag0,unknown
1.56759E+12,26,396,8.70E-05,0,0,43,1007302,16775073,7007,11982,8933,4509,3363,2271,Tag0,unknown
1.56759E+12,51,-409,-8.99E-05,0,0,43,1249560,16745515,6419,11414,5216,6819,2325,543,Tag0,unknown
1.56759E+12,51,1866,4.10E-04,0,0,43,639152,17109,2535,7065,1950,1643,736,268,Tag0,unknown
1.56759E+12,51,-839,-1.84E-04,0,0,43,2293125,105135,8346,14359,11241,4171,1725,798,Tag0,unknown
1.56759E+12,26,-563,-1.24E-04,0,0,43,985248,8582,242,4401,3709,2358,235,385,Tag0,unknown
1.56759E+12,0,131,2.88E-05,0,0,43,500296,2713,2656,904,526,1588,330,333,Tag0,unknown
1.56759E+12,26,-521,-1.14E-04,0,0,43,486939,7818,1595,1275,1305,775,172,16777114,Tag0,unknown
1.56759E+12,0,1337,2.94E-04,0,0,126,1082471,13351,5730,3530,5089,1337,717,1226,Tag0,unknown
1.56759E+12,26,-679,-1.49E-04,0,0,126,594798,76936,249,3152,6589,3784,2325,582,Tag0,unknown
1.56759E+12,0,-339,-7.45E-05,0,0,126,1215724,80118,161909,16753937,18706,10932,4495,1375,Tag0,unknown
1.56759E+12,0,-105,-2.31E-05,50,48,126,1703628,7157,17384,12184,6193,7037,2633,489,Tag0,unknown
1.56759E+12,26,-564,-1.24E-04,50,48,126,424772,8990,1554,483,416,144,131,73,Tag0,unknown
1.56759E+12,26,1138,2.50E-04,50,48,126,647149,817,3300,1464,1887,1230,315,307,Tag0,unknown
1.56759E+12,26,-433,-9.51E-05,50,48,126,1800202,16746549,3651,15843,12555,7143,1808,2277,Tag0,unknown
1.56759E+12,0,-148,-3.25E-05,53,54,126,1511781,20175,30848,9410,6788,5077,2274,1667,Tag0,unknown
1.56759E+12,0,-92,-2.02E-05,54,38,110,787164,16755111,7676,9738,4847,5320,1756,807,Tag0,unknown
1.56759E+12,0,-248,-5.45E-05,63,37,91,1796228,29370,28248,5538,10091,10023,3109,679,Tag0,unknown
1.56759E+12,0,112,2.46E-05,64,14,91,1487764,19669,5403,6414,3872,6448,2047,374,Tag0,unknown
1.56759E+12,0,-819,-1.80E-04,54,7,91,2873864,108335,17448,53798,12775,11994,3304,1746,Tag0,unknown
1.56759E+12,0,197,4.33E-05,56,8,91,670486,8972,3985,357,2323,1215,165,16777157,Tag0,unknown
1.56759E+12,26,-661,-1.45E-04,56,8,91,2333946,161975,16754670,16747796,17604,22042,8151,2742,Tag0,unknown
1.56759E+12,0,912,2.00E-04,43,8,91,640369,19237,1042,18903,7448,1841,2429,505,Tag0,unknown
1.56759E+12,0,-459,-1.01E-04,38,11,91,1633181,16746901,12145,8852,4879,6896,1704,986,Tag0,unknown
1.56759E+12,26,-325,-7.14E-05,38,11,91,768800,17754,2559,3640,3258,1582,724,593,Tag0,unknown
1.56759E+12,0,-267,-5.87E-05,51,13,123,2969678,16764673,26340,16745174,8306,12559,10640,2439,Tag0,unknown
1.56759E+12,0,-323,-7.10E-05,60,17,123,957606,23892,9075,9322,2039,9533,972,557,Tag0,unknown
1.56759E+12,0,220,4.83E-05,67,3,123,830145,92984,8471,7530,18519,9129,5301,4230,Tag0,unknown
1.56759E+12,0,-519,-1.14E-04,74,3,75,189648,18527,5173,7450,3651,5634,774,135,Tag0,unknown
1.56759E+12,0,561,1.23E-04,80,3,54,1395226,37336,16744530,16751474,68142,68307,11817,5368,Tag0,unknown
1.56759E+12,0,-134,-2.94E-05,67,3,54,989262,89234,4967,4906,6926,3436,925,771,Tag0,unknown
1.56759E+12,0,-342,-7.51E-05,60,1,39,632377,98004,7587,4514,5582,6564,13212,7160,Tag0,unknown
1.56759E+12,0,-92,-2.02E-05,54,1,41,234275,68986,7930,10491,7919,9498,8449,4493,Tag0,unknown
1.56759E+12,0,-359,-7.89E-05,43,1,41,16752351,6658,1343,2025,873,1631,741,411,Tag0,unknown
1.56759E+12,0,8,1.76E-06,75,21,41,495028,24578,16745261,28643,15489,16757949,23660,8705,Tag0,unknown
1.56759E+12,0,-122,-2.68E-05,63,17,41,253498,406918,15354,22475,11351,9651,9434,4070,Tag0,unknown
1.56759E+12,0,65,1.43E-05,60,10,41,71254,22367,1165,1291,2087,2117,731,1208,Tag0,unknown
1.56759E+12,0,-108,-2.37E-05,66,1,37,170452,16753152,3043,8594,11092,13372,2868,3094,Tag0,unknown
1.56759E+12,0,-353,-7.76E-05,54,1,37,568967,144312,31890,18818,17645,16748458,19815,2163,Tag0,unknown
1.56759E+12,0,295,6.48E-05,80,1,37,641770,147549,16765610,9143,16750504,16747030,25309,17663,Tag0,unknown
1.56759E+12,0,-279,-6.13E-05,88,1,41,265713,369767,16760044,16095,81241,87208,23584,4499,Tag0,unknown
1.56759E+12,0,66,1.45E-05,80,13,41,122197,16748527,8232,15775,2779,7869,7195,5842,Tag0,unknown
1.56759E+12,0,57,1.25E-05,75,7,37,237300,127201,2506,16747894,24241,30845,26042,7556,Tag0,unknown
1.56759E+12,0,-80,-1.76E-05,83,10,57,23827,18448,4882,11965,8634,13441,5653,1390,Tag0,unknown
1.56759E+12,0,21,4.61E-06,75,20,57,520182,16776044,2151,14072,3536,6000,4605,4838,Tag0,unknown
1.56759E+12,0,70,1.54E-05,78,16,40,1163475,16757703,16754523,11211,65465,19215,21696,9003,Tag0,unknown
1.56759E+12,0,-268,-5.89E-05,70,17,40,453873,56130,21229,8949,16748071,11572,11924,10186,Tag0,unknown
1.56759E+12,0,-300,-6.59E-05,63,21,40,314318,22090,17654,3094,13238,7500,5194,1453,Tag0,unknown
1.56759E+12,0,74,1.63E-05,77,16,35,573078,16759143,171,11644,8270,14343,4857,1620,Tag0,unknown
1.56759E+12,0,-365,-8.02E-05,70,24,44,403815,22937,16745088,3131,13555,7324,5244,4014,Tag0,unknown
timestampMs,poorSignal,eegRawValue,eegRawValueVolts,attention,meditation,blinkStrength,delta,theta,alphaLow,alphaHigh,betaLow,betaHigh,gammaLow,gammaMid,tagEvent,location
1.56758E+12,25,7,1.54E-06,0,0,88,257915,205287,72589,68736,30985,16747612,16766069,22424,Tag0,unknown
1.56758E+12,0,33,7.25E-06,0,0,88,505386,16768312,19685,16897,29434,16749520,16223,11190,Tag0,unknown
1.56758E+12,0,56,1.23E-05,0,0,88,14103,6854,9360,2019,5631,16754131,10970,8254,Tag0,unknown
1.56758E+12,0,80,1.76E-05,0,0,88,16749847,16758009,3943,4790,16074,16082,12612,10306,Tag0,unknown
1.56758E+12,0,75,1.65E-05,38,51,88,10719,20126,13256,14472,16753133,24980,16749438,4029,Tag0,unknown
1.56758E+12,0,52,1.14E-05,37,75,88,21100,9619,8569,22912,15345,25198,16301,6550,Tag0,unknown
1.56758E+12,0,18,3.96E-06,41,80,88,16747956,13980,6208,9367,24097,29612,9579,2868,Tag0,unknown
1.56758E+12,0,69,1.52E-05,50,97,88,20834,6109,7472,19656,3596,16757732,12197,3927,Tag0,unknown
1.56758E+12,0,69,1.52E-05,56,100,88,7699,11947,7778,19190,10314,16751662,9738,8956,Tag0,unknown
1.56758E+12,0,40,8.79E-06,53,100,88,28279,23146,8086,23154,5096,23405,14721,14744,Tag0,unknown
1.56758E+12,0,75,1.65E-05,37,100,88,101350,19621,10964,4190,2214,7857,4107,806,Tag0,unknown
1.56758E+12,0,18,3.96E-06,11,100,43,179712,80884,15236,3224,1886,8846,3039,1543,Tag0,unknown
1.56758E+12,0,60,1.32E-05,11,83,43,97623,16766561,16333,6751,8466,70679,14521,5208,Tag0,unknown
1.56758E+12,0,11,2.42E-06,4,70,43,67560,15465,3165,4354,1137,4500,5435,1647,Tag0,unknown
1.56758E+12,0,26,5.71E-06,17,67,43,17337,15782,9554,9494,2664,24847,9868,5698,Tag0,unknown
1.56758E+12,0,45,9.89E-06,40,74,43,16747889,14494,9734,7159,21011,25593,18310,12946,Tag0,unknown
1.56758E+12,0,-265,-5.82E-05,37,69,43,424674,22828,1811,9394,16754940,22828,6469,3082,Tag0,unknown
1.56758E+12,0,108,2.37E-05,43,50,43,45721,17726,839,2719,2661,8740,10276,3867,Tag0,unknown
1.56758E+12,0,88,1.93E-05,48,34,43,10611,18888,12501,2711,27680,16748704,19744,10585,Tag0,unknown
1.56758E+12,0,124,2.72E-05,37,50,43,16768255,16757142,16757612,16754724,19972,16745407,9117,7648,Tag0,unknown
1.56758E+12,0,56,1.23E-05,47,38,43,11407,17323,1209,4811,26064,16753044,5724,26451,Tag0,unknown
1.56758E+12,0,52,1.14E-05,64,44,43,13264,5891,1791,6124,10460,16747922,10489,5140,Tag0,unknown
1.56758E+12,0,27,5.93E-06,66,47,43,8250,7385,7577,9893,29727,32568,23573,8433,Tag0,unknown
1.56758E+12,0,96,2.11E-05,77,8,43,466136,16766228,7080,3624,28439,16759007,13769,8926,Tag0,unknown
1.56758E+12,0,98,2.15E-05,67,43,43,16748930,16179,13380,16173,8067,31310,16754702,25685,Tag0,unknown
1.56758E+12,0,97,2.13E-05,51,67,42,236693,13955,7461,16774451,8360,16752616,18137,8177,Tag0,unknown
1.56758E+12,0,-89,-1.96E-05,29,81,42,383025,11392,13217,6672,9886,5083,3743,2704,Tag0,unknown
1.56758E+12,0,100,2.20E-05,21,100,42,23752,27497,3677,28347,15967,17939,15850,7261,Tag0,unknown
1.56758E+12,0,23,5.05E-06,26,93,42,397087,22791,11098,11277,10445,16766877,12172,14068,Tag0,unknown
1.56758E+12,0,34,7.47E-06,21,70,42,35683,20455,735,7820,2999,7827,3034,4845,Tag0,unknown
1.56758E+12,0,92,2.02E-05,26,50,42,118101,55050,8542,20126,15651,16759864,20512,11069,Tag0,unknown
1.56758E+12,0,-360,-7.91E-05,29,50,42,591673,28013,17515,14823,6227,24145,18046,9827,Tag0,unknown
1.56758E+12,0,24,5.27E-06,14,54,43,16765706,8781,1740,4834,6941,4144,3578,881,Tag0,unknown
1.56758E+12,0,51,1.12E-05,10,40,41,812852,103247,18893,4684,16746008,29835,17424,6037,Tag0,unknown
1.56758E+12,0,11,2.42E-06,14,66,41,16748115,7411,16758463,9168,18242,30732,17185,4245,Tag0,unknown
1.56758E+12,0,1,2.20E-07,1,69,41,330173,13315,3460,9054,4238,2428,3124,172,Tag0,unknown
1.56758E+12,0,58,1.27E-05,1,63,44,514927,300753,72784,17975,24490,17714,15485,8794,Tag0,unknown
1.56758E+12,0,44,9.67E-06,1,63,44,514927,300753,72784,17975,24490,17714,15485,8794,Tag0,unknown
1.56758E+12,0,92,2.02E-05,1,63,44,514927,300753,72784,17975,24490,17714,15485,8794,Tag0,unknown
1.56758E+12,0,32,7.03E-06,21,53,44,139202,20287,22473,30823,14631,20601,8799,8215,Tag0,unknown
1.56758E+12,0,-79,-1.74E-05,41,67,44,20534,24720,5214,29926,9833,25180,27401,22092,Tag0,unknown
1.56758E+12,0,99,2.18E-05,41,64,44,16756833,9819,3610,3376,4277,5714,10357,1445,Tag0,unknown
1.56758E+12,0,65,1.43E-05,37,93,44,2783,16757923,15013,16751500,16744609,28122,10969,9103,Tag0,unknown
1.56758E+12,0,115,2.53E-05,37,93,44,2783,16757923,15013,16751500,16744609,28122,10969,9103,Tag0,unknown
1.56758E+12,0,72,1.58E-05,41,61,44,205632,11571,991,10033,9338,11501,980,2090,Tag0,unknown
1.56758E+12,0,362,7.95E-05,44,66,44,16752743,11165,5384,30403,18766,20679,9103,6445,Tag0,unknown
1.56758E+12,0,68,1.49E-05,53,53,59,147492,12215,2210,2160,3645,10521,4113,756,Tag0,unknown
1.56758E+12,0,-122,-2.68E-05,47,61,38,29388,10295,6984,12719,6772,14951,16086,3568,Tag0,unknown
1.56758E+12,0,103,2.26E-05,38,48,38,885889,198552,17487,2727,16746181,16759785,15654,12992,Tag0,unknown
1.56758E+12,0,-112,-2.46E-05,35,34,38,93965,14549,2551,1321,2851,13124,4048,2692,Tag0,unknown
1.56758E+12,0,86,1.89E-05,35,34,38,93965,14549,2551,1321,2851,13124,4048,2692,Tag0,unknown
1.56758E+12,0,5,1.10E-06,44,26,38,25977,16756386,24153,20362,26792,24272,16755,5904,Tag0,unknown
1.56758E+12,0,83,1.82E-05,37,50,38,16753440,11520,4321,6625,4454,5684,3554,395,Tag0,unknown
timestampMs,poorSignal,eegRawValue,eegRawValueVolts,attention,meditation,blinkStrength,delta,theta,alphaLow,alphaHigh,betaLow,betaHigh,gammaLow,gammaMid,tagEvent,location
1.56758E+12,25,-269,-5.91E-05,0,0,43,5654,16777161,65,540,329,118,52,28,Tag0,unknown
1.56758E+12,25,50,1.10E-05,0,0,43,813895,13279,16748380,26716,20326,18603,15442,12385,Tag0,unknown
1.56758E+12,0,40,8.79E-06,0,0,43,146097,12611,3493,23266,2579,7714,4256,2623,Tag0,unknown
1.56758E+12,0,-289,-6.35E-05,0,0,44,140481,105757,10995,9683,20014,23205,16751625,10642,Tag0,unknown
1.56758E+12,0,5,1.10E-06,0,0,88,1244226,86749,19040,31583,14915,16757497,16750663,16085,Tag0,unknown
1.56758E+12,0,101,2.22E-05,48,35,88,904589,42198,6729,17791,27546,16747043,18626,4343,Tag0,unknown
1.56758E+12,0,65,1.43E-05,48,16,88,204851,138488,643,2243,1611,24605,14058,6717,Tag0,unknown
1.56758E+12,0,26,5.71E-06,37,17,38,231431,87827,18031,7824,2181,11223,2874,3394,Tag0,unknown
1.56758E+12,0,52,1.14E-05,44,26,38,1070334,82139,29775,16768407,7885,16756089,27155,15197,Tag0,unknown
1.56758E+12,0,99,2.18E-05,60,29,38,4175,22466,3927,8521,20873,24262,16758094,9104,Tag0,unknown
1.56758E+12,0,-57,-1.25E-05,75,47,38,70168,16747095,7496,7521,25410,23403,16751091,8354,Tag0,unknown
1.56758E+12,0,-100,-2.20E-05,100,47,38,7020,5293,6928,6825,7803,16757632,25257,12270,Tag0,unknown
1.56758E+12,0,0,0,100,38,38,182595,6890,13021,5719,19328,16769566,23068,11387,Tag0,unknown
1.56758E+12,0,69,1.52E-05,91,50,38,46826,26321,19377,8956,4174,8026,4764,3165,Tag0,unknown
1.56758E+12,0,8,1.76E-06,63,56,40,16768654,99891,16755438,16750505,27566,16747913,13204,5012,Tag0,unknown
1.56758E+12,0,32,7.03E-06,29,61,40,1730667,73138,21139,28670,12828,20911,19018,9223,Tag0,unknown
1.56758E+12,0,-281,-6.17E-05,26,61,40,8800,12468,4321,12534,17604,16764105,21297,8644,Tag0,unknown
1.56758E+12,0,123,2.70E-05,44,56,40,2823,16050,11618,13714,18805,27942,14103,20053,Tag0,unknown
1.56758E+12,0,68,1.49E-05,40,48,43,1077209,630060,16774728,16763198,15187,32067,27527,10040,Tag0,unknown
1.56758E+12,0,-257,-5.65E-05,43,43,43,495553,16767152,6094,10703,9877,10280,7737,3595,Tag0,unknown
1.56758E+12,0,69,1.52E-05,34,51,43,3899,23854,16744769,16124,14458,16750465,16756602,11889,Tag0,unknown
1.56758E+12,0,-373,-8.20E-05,41,44,43,16764705,18119,3086,7969,14198,16749180,16749427,12402,Tag0,unknown
1.56758E+12,0,39,8.57E-06,77,48,57,16745342,24589,7930,15053,13238,16768780,16751107,10125,Tag0,unknown
1.56758E+12,0,25,5.49E-06,66,47,38,722133,496916,67276,30649,28211,16747319,16750620,11709,Tag0,unknown
1.56758E+12,0,-311,-6.83E-05,51,40,38,16774649,9514,3731,224,1933,1527,1585,1285,Tag0,unknown
1.56758E+12,0,34,7.47E-06,26,47,38,920240,186648,16766901,16760896,12758,16755665,16758752,20803,Tag0,unknown
1.56758E+12,0,6,1.32E-06,8,56,38,123727,15962,16401,4740,3161,7091,11280,4281,Tag0,unknown
1.56758E+12,0,42,9.23E-06,24,57,38,38249,16762114,818,12890,4500,15854,6408,3603,Tag0,unknown
1.56758E+12,0,66,1.45E-05,30,51,38,215158,16758360,8455,3574,8106,14501,12792,6336,Tag0,unknown
1.56758E+12,0,-321,-7.05E-05,57,48,38,6406,19419,4370,23048,30394,75356,19691,10102,Tag0,unknown
1.56758E+12,0,40,8.79E-06,69,47,38,13240,17970,20033,16744912,16748641,16750013,32486,17704,Tag0,unknown
1.56758E+12,0,38,8.35E-06,88,51,38,11636,10567,4200,18733,4679,16761592,26553,16766881,Tag0,unknown
1.56758E+12,0,-299,-6.57E-05,87,54,38,183868,101728,16755343,11291,3545,16761460,15571,11689,Tag0,unknown
1.56758E+12,0,86,1.89E-05,56,56,38,878450,465928,33876,16752957,30341,16771177,31509,6712,Tag0,unknown
1.56758E+12,0,59,1.30E-05,56,48,38,134572,16766071,15040,21666,16766922,16761546,7646,7511,Tag0,unknown
1.56758E+12,0,11,2.42E-06,56,47,38,17657,7088,2959,7317,9566,25517,25653,17232,Tag0,unknown
1.56758E+12,0,-258,-5.67E-05,66,47,38,97709,16745660,16747135,3612,16761813,16753079,9582,8514,Tag0,unknown
1.56758E+12,0,26,5.71E-06,87,51,38,656054,31227,26210,9906,12615,16756884,24486,16567,Tag0,unknown
1.56758E+12,0,33,7.25E-06,78,54,38,34344,59442,16757616,14509,11252,16752881,14903,8598,Tag0,unknown
1.56758E+12,0,5,1.10E-06,63,47,38,78739,22832,489,3076,4762,10990,7595,1447,Tag0,unknown
1.56758E+12,0,74,1.63E-05,77,41,38,426848,22052,12232,5731,13429,75924,19704,14003,Tag0,unknown
1.56758E+12,0,66,1.45E-05,81,37,38,114978,22022,9188,6787,11333,16753419,16643,4831,Tag0,unknown
1.56758E+12,0,90,1.98E-05,96,30,38,5373,13461,2579,9844,16745053,24614,12706,3406,Tag0,unknown
1.56758E+12,0,2,4.39E-07,100,38,38,99655,26306,9137,8191,8251,31511,19966,5218,Tag0,unknown
1.56758E+12,0,36,7.91E-06,83,48,38,1794030,93050,31438,16763862,14103,16757821,32378,5906,Tag0,unknown
1.56758E+12,0,67,1.47E-05,90,50,38,19653,11463,4410,19477,19300,66548,24398,9230,Tag0,unknown
1.56758E+12,0,40,8.79E-06,77,54,38,22288,16750089,6471,28693,16753506,18808,16760794,3251,Tag0,unknown
1.56758E+12,0,90,1.98E-05,61,61,38,680504,151866,87441,16768588,16748321,16769490,13019,17055,Tag0,unknown
1.56758E+12,0,26,5.71E-06,78,54,39,5788,17047,12707,11371,16745745,16765596,16756614,5403,Tag0,unknown
1.56758E+12,0,3,6.59E-07,56,44,39,206322,71341,5616,1058,3980,21496,8864,3025,Tag0,unknown
1.56758E+12,0,-68,-1.49E-05,78,43,39,12742,7880,18615,10962,15629,77517,20155,3476,Tag0,unknown
1.56758E+12,0,58,1.27E-05,94,38,37,22373,18196,13098,9932,12642,16749386,25522,13002,Tag0,unknown
1.56758E+12,0,97,2.13E-05,84,47,37,25141,20061,23516,23912,17972,16750279,25526,6628,Tag0,unknown
1.56758E+12,0,41,9.01E-06,97,56,37,13117,29876,8834,9207,7721,16751860,19665,11960,Tag0,unknown
1.56758E+12,0,-371,-8.15E-05,88,56,39,442988,65748,16752540,8223,14065,38936,17661,7823,Tag0,unknown
1.56758E+12,0,117,2.57E-05,74,63,39,869535,38367,145221,16389,26290,16765832,16762003,31774,Tag0,unknown
1.56758E+12,0,54,1.19E-05,67,63,39,8134,15855,30692,10899,32126,22411,16745102,6750,Tag0,unknown
1.56758E+12,0,24,5.27E-06,51,60,44,429212,85734,4887,16166,23274,16611,10019,7224,Tag0,unknown
1.56758E+12,0,48,1.05E-05,29,50,44,123858,114390,17746,6257,16767174,23578,26056,12505,Tag0,unknown
timestampMs,poorSignal,eegRawValue,eegRawValueVolts,attention,meditation,blinkStrength,delta,theta,alphaLow,alphaHigh,betaLow,betaHigh,gammaLow,gammaMid,tagEvent,location
1.56758E+12,0,-294,-6.46E-05,80,51,41,771559,5268,24611,8819,22991,16578,13461,3884,Tag0,unknown
1.56758E+12,0,-277,-6.09E-05,63,27,41,1573973,397022,16763548,16865,12532,16744664,16757300,15630,Tag0,unknown
1.56758E+12,0,43,9.45E-06,34,23,41,1101941,428021,60940,30569,28504,16757704,16758769,29444,Tag0,unknown
1.56758E+12,0,40,8.79E-06,57,8,38,24079,66268,3107,10428,10700,67505,16787,13448,Tag0,unknown
1.56758E+12,0,-111,-2.44E-05,50,7,38,122434,15704,12770,7208,3573,10215,4038,2238,Tag0,unknown
1.56758E+12,0,18,3.96E-06,77,3,38,141913,78829,8877,2225,4096,16758755,8746,5951,Tag0,unknown
1.56758E+12,0,33,7.25E-06,100,8,38,140203,16762630,9863,16750230,14671,79227,22663,6084,Tag0,unknown
1.56758E+12,0,85,1.87E-05,88,17,38,791241,144449,16746490,1668,17860,16749196,20209,22655,Tag0,unknown
1.56758E+12,0,-322,-7.08E-05,100,14,38,16775565,16744328,16359,25318,11160,16768463,16746082,15266,Tag0,unknown
1.56758E+12,0,-273,-6.00E-05,100,21,38,115160,25835,5297,2385,5669,22605,10330,5051,Tag0,unknown
1.56758E+12,0,19,4.17E-06,90,16,38,552773,63254,6585,16753537,31118,16758192,30777,17059,Tag0,unknown
1.56758E+12,0,118,2.59E-05,94,26,35,393856,16747667,2699,24718,7679,20207,7708,3478,Tag0,unknown
1.56758E+12,0,98,2.15E-05,97,21,35,16760651,17817,11200,14898,10737,65968,26239,13663,Tag0,unknown
1.56758E+12,0,6,1.32E-06,80,24,35,2043773,151077,19921,27067,16750017,16766635,19519,15658,Tag0,unknown
1.56758E+12,0,-273,-6.00E-05,63,17,35,50653,41369,10025,5687,2768,10349,3438,3973,Tag0,unknown
1.56758E+12,0,-103,-2.26E-05,48,21,38,315543,16757633,28561,4346,6407,9492,4547,5155,Tag0,unknown
1.56758E+12,0,-123,-2.70E-05,17,16,38,62507,15618,2265,1892,2467,2376,2877,391,Tag0,unknown
1.56758E+12,0,-262,-5.76E-05,8,21,38,2200701,225634,16754048,16752226,16752972,16745964,16749468,21355,Tag0,unknown
1.56758E+12,0,-280,-6.15E-05,21,30,38,353993,159863,16774226,16236,21732,68277,24260,17301,Tag0,unknown
1.56758E+12,0,22,4.83E-06,51,21,38,22222,5774,13084,9111,27733,16766067,11650,10286,Tag0,unknown
1.56758E+12,0,96,2.11E-05,69,29,38,290610,27826,26435,6104,25993,16752429,28619,19918,Tag0,unknown
1.56758E+12,0,-294,-6.46E-05,84,29,38,76681,16748166,20435,8261,16749816,16744670,22966,11405,Tag0,unknown
1.56758E+12,0,82,1.80E-05,78,34,41,757379,16772877,12486,21714,24076,17995,16763242,7146,Tag0,unknown
1.56758E+12,0,49,1.08E-05,43,21,41,103874,43346,3863,11115,12068,9537,4418,1904,Tag0,unknown
1.56758E+12,0,52,1.14E-05,43,3,41,93544,17741,2850,191,7193,13642,9597,4024,Tag0,unknown
1.56758E+12,0,90,1.98E-05,23,1,40,956016,432833,16771426,19046,16757443,16758561,25094,16758765,Tag0,unknown
1.56758E+12,0,-125,-2.75E-05,41,1,40,12619,16380,2805,14156,15579,16752018,25239,7807,Tag0,unknown
1.56758E+12,0,100,2.20E-05,61,1,54,91463,10258,2445,747,860,6216,921,778,Tag0,unknown
1.56758E+12,0,56,1.23E-05,41,13,54,139348,15422,3567,2310,1977,1989,2452,1535,Tag0,unknown
1.56758E+12,0,3,6.59E-07,40,26,54,758894,65051,16759153,7649,6901,12449,12352,4052,Tag0,unknown
1.56758E+12,0,89,1.96E-05,21,11,41,587833,16765757,200,5103,7105,13005,9749,1539,Tag0,unknown
1.56758E+12,0,57,1.25E-05,23,11,41,95834,19028,3148,3966,2615,13755,4730,2253,Tag0,unknown
1.56758E+12,0,8,1.76E-06,54,8,41,9231,11001,2789,10260,9994,16754215,32403,6230,Tag0,unknown
1.56758E+12,0,39,8.57E-06,87,4,41,4719,8066,13063,13867,16755155,16760548,9112,8404,Tag0,unknown
1.56758E+12,0,109,2.40E-05,94,43,41,6265,5508,23604,16768758,4924,16752343,26085,10116,Tag0,unknown
1.56758E+12,0,-284,-6.24E-05,94,47,41,509177,16759711,19335,8055,30207,16752299,16756821,20162,Tag0,unknown
1.56758E+12,0,117,2.57E-05,83,60,54,81867,11403,12478,18841,19636,27514,16745863,19600,Tag0,unknown
1.56758E+12,0,-283,-6.22E-05,57,70,54,1013078,154074,28524,41653,14232,16751865,26796,15227,Tag0,unknown
1.56758E+12,0,82,1.80E-05,47,75,54,294251,6335,28742,19320,7286,7821,6644,2013,Tag0,unknown
1.56758E+12,0,-96,-2.11E-05,51,64,54,925995,90793,2956,16790,10238,93992,16761483,18587,Tag0,unknown
1.56758E+12,0,1,2.20E-07,37,50,54,153188,72463,8015,6578,9458,13507,7689,5534,Tag0,unknown
1.56758E+12,0,86,1.89E-05,50,53,54,8387,16024,6941,16770797,20894,16750244,13289,9123,Tag0,unknown
1.56758E+12,0,108,2.37E-05,63,27,54,1631375,52717,14634,16759521,31037,88346,21998,12440,Tag0,unknown
1.56758E+12,0,65,1.43E-05,56,30,54,81372,30781,5657,2679,11540,17274,2749,8686,Tag0,unknown
1.56758E+12,0,23,5.05E-06,57,51,54,164229,16757536,16765009,18616,16744495,24380,28277,16671,Tag0,unknown
1.56758E+12,0,22,4.83E-06,69,27,54,11345,14999,3479,11269,16755225,16755488,16746894,10835,Tag0,unknown
1.56758E+12,0,16,3.52E-06,74,35,54,574235,30295,14658,26246,14929,16760565,25966,13108,Tag0,unknown
1.56758E+12,0,-101,-2.22E-05,83,43,54,107162,22602,21796,17516,16744908,69474,28890,15118,Tag0,unknown
1.56758E+12,0,87,1.91E-05,87,29,54,510307,64906,24180,18643,16606,16756312,29128,8249,Tag0,unknown
1.56758E+12,0,52,1.14E-05,78,29,54,651006,74304,17152,8639,20791,68290,16756853,7608,Tag0,unknown
1.56758E+12,0,-259,-5.69E-05,69,7,54,137892,16768669,1410,3452,3627,18419,7302,2832,Tag0,unknown
1.56758E+12,0,85,1.87E-05,56,20,54,336321,16747599,4193,16765491,14747,28155,16545,11800,Tag0,unknown
1.56758E+12,0,72,1.58E-05,50,4,54,154683,151018,3291,5926,3502,21194,11615,2526,Tag0,unknown
1.56758E+12,0,-259,-5.69E-05,51,17,54,296476,22489,15458,25390,28697,16761057,16748463,20091,Tag0,unknown
1.56758E+12,0,64,1.41E-05,67,37,54,8857,14948,9903,17151,10271,16770769,31768,11579,Tag0,unknown
1.56758E+12,0,120,2.64E-05,77,24,54,79642,24666,10900,2806,2262,25001,6360,3244,Tag0,unknown
1.56758E+12,0,8,1.76E-06,87,47,39,34873,16401,2649,7895,1859,9266,6430,2496,Tag0,unknown
1.56758E+12,0,80,1.76E-05,80,41,39,1241618,73941,20818,12406,20168,16758495,75190,6520,Tag0,unknown
1.56758E+12,0,40,8.79E-06,61,40,39,2261865,212741,81040,16241,14146,77895,16772683,19070,Tag0,unknown
timestampMs,poorSignal,eegRawValue,eegRawValueVolts,attention,meditation,blinkStrength,delta,theta,alphaLow,alphaHigh,betaLow,betaHigh,gammaLow,gammaMid,tagEvent,location
1.56758E+12,25,27,5.93E-06,0,0,40,12789,3261,495,16777101,185,873,271,16777114,Tag0,unknown
1.56758E+12,25,-96,-2.11E-05,0,0,40,1286414,288918,210746,157691,45589,80783,16774743,16746733,Tag0,unknown
1.56758E+12,0,66,1.45E-05,0,0,40,74073,90192,16755511,10817,23280,26080,13253,9734,Tag0,unknown
1.56758E+12,0,-261,-5.73E-05,0,0,38,759611,83814,16747162,15072,21722,22459,13571,9076,Tag0,unknown
1.56758E+12,0,64,1.41E-05,0,0,38,379848,47042,1559,19373,17902,16749640,21351,7941,Tag0,unknown
1.56758E+12,0,-275,-6.04E-05,51,44,38,824407,80098,27540,14140,16748036,16760498,16765796,17390,Tag0,unknown
1.56758E+12,0,33,7.25E-06,34,30,38,467985,126136,9350,12255,17876,13544,29020,16895,Tag0,unknown
1.56758E+12,0,26,5.71E-06,56,13,38,8422,24114,2165,3879,14883,16758502,31763,10337,Tag0,unknown
1.56758E+12,0,2,4.39E-07,50,16,39,80064,93534,9976,19303,12384,19119,13463,15569,Tag0,unknown
1.56758E+12,0,7,1.54E-06,34,11,39,814193,16759033,7387,4582,4462,10872,6557,2600,Tag0,unknown
1.56758E+12,0,108,2.37E-05,48,38,39,1413505,61356,16767241,8213,18916,16744774,25389,4577,Tag0,unknown
1.56758E+12,0,35,7.69E-06,13,63,41,288853,198044,16745026,32007,29083,31655,21558,7530,Tag0,unknown
1.56758E+12,0,26,5.71E-06,17,44,60,2238842,338934,13177,31255,16767118,65444,67733,25403,Tag0,unknown
1.56758E+12,0,32,7.03E-06,3,30,60,1469601,684178,16747205,30371,16830,16748979,16757570,10911,Tag0,unknown
1.56758E+12,0,81,1.78E-05,16,37,60,2396324,16754310,16756972,7453,15344,16754147,26708,14005,Tag0,unknown
1.56758E+12,0,-297,-6.53E-05,40,40,60,309695,24972,5376,13380,12105,26550,21561,8498,Tag0,unknown
1.56758E+12,0,2,4.39E-07,56,60,60,40304,66952,10616,30371,26108,75579,16745508,19987,Tag0,unknown
1.56758E+12,0,69,1.52E-05,75,75,60,49967,25166,5413,2719,6114,7198,6047,7984,Tag0,unknown
1.56758E+12,0,40,8.79E-06,74,47,44,118425,81784,11000,4700,29976,16750230,16774446,18260,Tag0,unknown
1.56758E+12,0,-107,-2.35E-05,67,48,44,590350,29204,8345,8735,7029,19633,4441,6148,Tag0,unknown
1.56758E+12,0,113,2.48E-05,60,24,44,276127,16756967,1237,2241,2766,18082,8794,4895,Tag0,unknown
1.56758E+12,0,41,9.01E-06,75,26,44,103412,28565,7765,6893,4318,29938,8727,6925,Tag0,unknown
1.56758E+12,0,44,9.67E-06,81,50,44,16251,14915,4821,18146,22421,27739,22815,15670,Tag0,unknown
1.56758E+12,0,-257,-5.65E-05,83,51,44,3157,27303,2885,23217,18462,26965,16751670,12699,Tag0,unknown
1.56758E+12,0,70,1.54E-05,91,93,44,4636,4577,16436,16746394,17710,16745260,25639,20209,Tag0,unknown
1.56758E+12,0,27,5.93E-06,74,97,44,43501,16757723,24515,2304,14498,12322,11673,2665,Tag0,unknown
1.56758E+12,0,64,1.41E-05,74,96,44,1192717,20213,29948,13476,30632,16758410,19623,23128,Tag0,unknown
1.56758E+12,0,72,1.58E-05,87,88,44,7018,7497,5279,13325,12216,16765221,16715,11388,Tag0,unknown
1.56758E+12,0,68,1.49E-05,87,88,44,7018,7497,5279,13325,12216,16765221,16715,11388,Tag0,unknown
1.56758E+12,0,17,3.74E-06,75,54,44,62470,414617,84753,14847,16746831,67243,31015,25044,Tag0,unknown
1.56758E+12,0,77,1.69E-05,80,54,44,697261,8640,15044,30288,19336,77763,21026,16648,Tag0,unknown
1.56758E+12,0,5,1.10E-06,69,56,39,569343,16748349,16748836,10829,16749658,71453,32347,25452,Tag0,unknown
1.56758E+12,0,23,5.05E-06,75,44,39,62484,17262,2319,3229,2282,11242,8737,4191,Tag0,unknown
1.56758E+12,0,74,1.63E-05,54,43,39,901022,51438,16758927,14800,9151,16755959,27685,16754053,Tag0,unknown
1.56758E+12,0,-102,-2.24E-05,43,23,39,1561695,232171,13611,23226,28023,36098,24895,13882,Tag0,unknown
1.56758E+12,0,-274,-6.02E-05,60,66,39,7458,12962,28884,7155,21070,16747250,16747297,15326,Tag0,unknown
1.56758E+12,0,0,0,48,57,39,144578,84875,3723,17187,5200,8171,12510,1921,Tag0,unknown
1.56758E+12,0,101,2.22E-05,69,61,39,14300,4248,2452,5556,11410,16769644,20168,6817,Tag0,unknown
1.56758E+12,0,315,6.92E-05,69,61,39,14300,4248,2452,5556,11410,16769644,20168,6817,Tag0,unknown
1.56758E+12,0,36,7.91E-06,60,50,41,34175,12011,6932,2605,2745,17748,10009,1840,Tag0,unknown
1.56758E+12,0,12,2.64E-06,87,48,41,10692,16034,8633,8339,14610,16774610,16749340,22648,Tag0,unknown
1.56758E+12,0,71,1.56E-05,87,48,41,10692,16034,8633,8339,14610,16774610,16749340,22648,Tag0,unknown
1.56758E+12,0,-100,-2.20E-05,63,37,41,1089820,92241,2398,15915,22753,16776837,11844,27783,Tag0,unknown
1.56758E+12,0,51,1.12E-05,63,35,41,10865,18459,8159,6972,25493,29087,24657,20735,Tag0,unknown
1.56758E+12,0,-257,-5.65E-05,54,47,45,8563,7145,11816,6495,14651,21140,28389,13333,Tag0,unknown
1.56758E+12,0,-300,-6.59E-05,26,48,45,1194232,197961,16755359,5177,29680,16746080,9882,14292,Tag0,unknown
1.56758E+12,0,33,7.25E-06,30,37,46,16752644,8552,2220,602,5393,16118,5963,3469,Tag0,unknown
1.56758E+12,0,22,4.83E-06,24,29,46,207995,82980,22242,19901,17805,16764025,13287,13370,Tag0,unknown
1.56758E+12,0,-267,-5.87E-05,63,47,55,1497,5851,1023,18502,17338,16749583,15778,2192,Tag0,unknown
1.56758E+12,0,82,1.80E-05,63,47,55,1497,5851,1023,18502,17338,16749583,15778,2192,Tag0,unknown
1.56758E+12,0,55,1.21E-05,50,41,55,228661,56047,9240,4154,14962,16759598,19261,5105,Tag0,unknown
1.56758E+12,0,76,1.67E-05,50,41,55,228661,56047,9240,4154,14962,16759598,19261,5105,Tag0,unknown
1.56758E+12,0,3,6.59E-07,44,48,55,1857,16027,11280,4165,25718,25737,22163,8490,Tag0,unknown
1.56758E+12,0,116,2.55E-05,44,48,55,1857,16027,11280,4165,25718,25737,22163,8490,Tag0,unknown
1.56758E+12,0,99,2.18E-05,44,48,55,1857,16027,11280,4165,25718,25737,22163,8490,Tag0,unknown
timestampMs,poorSignal,eegRawValue,eegRawValueVolts,attention,meditation,blinkStrength,delta,theta,alphaLow,alphaHigh,betaLow,betaHigh,gammaLow,gammaMid,tagEvent,location
1.56758E+12,25,10,2.20E-06,0,0,123,6196,279,14,67,113,16777197,16777188,23,Tag0,unknown
1.56758E+12,25,-115,-2.53E-05,0,0,123,2062576,204292,16746934,16744841,85270,16767524,32009,22180,Tag0,unknown
1.56758E+12,0,69,1.52E-05,0,0,45,79767,16753696,1870,2970,9519,9362,4345,1885,Tag0,unknown
1.56758E+12,0,-41,-9.01E-06,0,0,40,201265,34326,15664,3931,5717,11297,9200,3124,Tag0,unknown
1.56758E+12,0,-257,-5.65E-05,0,0,35,633544,19367,9332,4250,3325,13512,11767,4034,Tag0,unknown
1.56758E+12,0,45,9.89E-06,34,51,35,981364,16769824,24278,20181,3797,12141,21942,3440,Tag0,unknown
1.56758E+12,0,23,5.05E-06,51,56,47,89862,15466,4008,6996,11830,14347,5343,3078,Tag0,unknown
1.56758E+12,0,59,1.30E-05,40,47,47,327898,53136,175,9711,8210,9775,6788,4133,Tag0,unknown
1.56758E+12,0,-121,-2.66E-05,23,29,47,56999,121369,3655,3090,2579,10460,3287,6360,Tag0,unknown
1.56758E+12,0,-299,-6.57E-05,29,24,47,103462,16748601,6938,12637,2780,9400,12059,2430,Tag0,unknown
1.56758E+12,0,113,2.48E-05,35,20,47,1493102,16776998,10254,12909,5841,83554,17739,10598,Tag0,unknown
1.56758E+12,0,-70,-1.54E-05,70,29,47,11031,9922,7477,3793,8600,16749787,16752654,12889,Tag0,unknown
1.56758E+12,0,9,1.98E-06,93,64,47,16775111,29386,15496,16763363,24550,16750383,24609,7315,Tag0,unknown
1.56758E+12,0,12,2.64E-06,100,51,47,16763732,24757,5171,1718,3744,24591,8627,4631,Tag0,unknown
1.56758E+12,0,24,5.27E-06,100,50,47,19859,28642,5919,7365,23967,16771721,18976,18283,Tag0,unknown
1.56758E+12,0,10,2.20E-06,87,48,34,526520,16750273,10063,11311,65498,30154,16753969,6237,Tag0,unknown
1.56758E+12,0,56,1.23E-05,77,30,34,776499,226445,20963,16746712,15093,16761669,17750,24416,Tag0,unknown
1.56758E+12,0,9,1.98E-06,69,44,34,450203,16761075,19693,14317,13343,16745117,19987,4466,Tag0,unknown
1.56758E+12,0,-281,-6.17E-05,44,40,34,120834,356703,29604,8604,14704,16773433,16768410,10777,Tag0,unknown
1.56758E+12,0,-265,-5.82E-05,40,30,34,171746,16744397,2364,435,1077,10525,7793,4734,Tag0,unknown
1.56758E+12,0,20,4.39E-06,63,37,34,6133,10331,5384,17614,20759,16760502,24713,15407,Tag0,unknown
1.56758E+12,0,100,2.20E-05,61,27,34,610408,46488,22753,9401,15411,16765817,18905,19224,Tag0,unknown
1.56758E+12,0,-281,-6.17E-05,67,40,34,124358,90568,24885,6316,12308,16745076,19343,22327,Tag0,unknown
1.56758E+12,0,104,2.29E-05,56,41,38,449981,498773,18239,16751165,16771933,16770047,16763166,31766,Tag0,unknown
1.56758E+12,0,-308,-6.77E-05,37,40,38,634281,173952,16768715,27421,13291,75597,16763600,12286,Tag0,unknown
1.56758E+12,0,35,7.69E-06,37,43,38,716796,53780,27516,20721,3800,16773386,16752028,26800,Tag0,unknown
1.56758E+12,0,-278,-6.11E-05,44,37,38,31309,16760963,4370,12018,16752489,16755728,14521,6321,Tag0,unknown
1.56758E+12,0,21,4.61E-06,66,44,44,495601,16771234,11694,13931,16746024,16761920,27448,9173,Tag0,unknown
1.56758E+12,0,20,4.39E-06,57,27,44,16768201,17142,16777192,803,1138,2345,1453,466,Tag0,unknown
1.56758E+12,0,21,4.61E-06,75,20,44,13532,20722,9428,1755,17118,16767745,20284,4869,Tag0,unknown
1.56758E+12,0,-100,-2.20E-05,74,23,39,16755470,65518,15234,11928,16744975,16763475,24594,28423,Tag0,unknown
1.56758E+12,0,-311,-6.83E-05,57,21,39,65452,13292,1010,1064,255,2555,2184,247,Tag0,unknown
1.56758E+12,0,55,1.21E-05,77,38,39,135343,74441,14986,27930,24962,67354,19883,8143,Tag0,unknown
1.56758E+12,0,54,1.19E-05,78,41,47,2861,10230,9891,7634,16749391,16772008,20361,18788,Tag0,unknown
1.56758E+12,0,-277,-6.09E-05,70,57,47,85738,23233,28052,16747297,27266,29232,13611,15824,Tag0,unknown
1.56758E+12,0,112,2.46E-05,97,64,47,13865,11764,8516,11720,12658,16770132,11490,4354,Tag0,unknown
1.56758E+12,0,5,1.10E-06,77,54,47,287556,289703,32543,6113,16757162,16747226,11596,9551,Tag0,unknown
1.56758E+12,0,24,5.27E-06,51,51,47,281283,121933,12357,20604,24894,16762858,16744417,11761,Tag0,unknown
1.56758E+12,0,87,1.91E-05,70,30,47,9300,14184,4342,13617,17337,39842,12971,7283,Tag0,unknown
1.56758E+12,0,-259,-5.69E-05,48,29,47,1472872,105129,10006,16758777,28184,16764946,13310,23964,Tag0,unknown
1.56758E+12,0,26,5.71E-06,67,41,47,88629,16770479,16956,20917,9757,69258,19421,6686,Tag0,unknown
1.56758E+12,0,-219,-4.81E-05,69,50,39,2094170,136086,24345,16746873,20463,16770094,29034,14798,Tag0,unknown
1.56758E+12,0,-112,-2.46E-05,37,48,39,150690,16746284,520,3618,1344,4032,2118,203,Tag0,unknown
1.56758E+12,0,80,1.76E-05,37,50,39,1184913,16746450,4983,9858,8633,11278,5621,2982,Tag0,unknown
1.56758E+12,0,10,2.20E-06,37,50,39,1184913,16746450,4983,9858,8633,11278,5621,2982,Tag0,unknown
1.56758E+12,0,-290,-6.37E-05,26,57,39,132556,16758109,16759119,25575,16748805,16752340,16753854,20106,Tag0,unknown
1.56758E+12,0,67,1.47E-05,34,51,39,281547,185691,11118,22708,12751,16755832,32047,23035,Tag0,unknown
1.56758E+12,0,103,2.26E-05,41,60,39,859179,11514,7524,8963,7167,12447,7328,4703,Tag0,unknown
1.56758E+12,0,-260,-5.71E-05,38,54,39,494245,16774655,14293,7349,2526,23243,5319,1030,Tag0,unknown
1.56758E+12,0,-177,-3.89E-05,51,60,39,434217,73514,19717,6866,13085,16773447,24644,9143,Tag0,unknown
1.56758E+12,0,9,1.98E-06,40,43,39,87809,27538,654,5038,14689,4809,12016,916,Tag0,unknown
1.56758E+12,0,65,1.43E-05,67,47,39,18077,10446,7146,19900,10127,32440,21230,14384,Tag0,unknown
1.56758E+12,0,33,7.25E-06,63,47,58,497214,16773518,1522,17900,28482,31888,30641,6445,Tag0,unknown
1.56758E+12,0,32,7.03E-06,63,47,58,497214,16773518,1522,17900,28482,31888,30641,6445,Tag0,unknown
1.56758E+12,0,120,2.64E-05,48,56,58,53626,16755250,902,14136,3587,14461,2922,1617,Tag0,unknown
1.56758E+12,0,43,9.45E-06,29,50,58,93542,40788,18128,20663,14085,19636,30417,7525,Tag0,unknown
1.56758E+12,0,56,1.23E-05,21,61,56,323093,16752803,22025,2475,6488,11494,5193,2781,Tag0,unknown
timestampMs,poorSignal,eegRawValue,eegRawValueVolts,attention,meditation,blinkStrength,delta,theta,alphaLow,alphaHigh,betaLow,betaHigh,gammaLow,gammaMid,tagEvent,location
1.56758E+12,25,-294,-6.46E-05,0,0,40,134,23,4,9,5,11,20,5,Tag0,unknown
1.56758E+12,0,-282,-6.20E-05,0,0,40,444118,71771,6371,18224,16102,12673,8575,5332,Tag0,unknown
1.56758E+12,0,3,6.59E-07,0,0,40,499896,69831,5479,30162,26655,16753598,23032,15937,Tag0,unknown
1.56758E+12,0,-278,-6.11E-05,0,0,40,520897,82374,6953,532,30987,16751087,28774,3849,Tag0,unknown
1.56758E+12,0,-282,-6.20E-05,37,53,40,896651,134320,22717,16766547,24132,16748271,19814,5968,Tag0,unknown
1.56758E+12,0,266,5.84E-05,29,64,40,439727,97670,16746499,11211,7110,21664,10684,12774,Tag0,unknown
1.56758E+12,0,3,6.59E-07,53,75,45,16744416,7021,2455,3013,2210,10832,4784,2346,Tag0,unknown
1.56758E+12,0,57,1.25E-05,75,80,45,43036,6233,1222,1224,2224,6449,7742,7618,Tag0,unknown
1.56758E+12,0,37,8.13E-06,75,81,45,597852,73695,28303,23970,14762,25215,16748730,3992,Tag0,unknown
1.56758E+12,0,19,4.17E-06,78,70,57,100480,51490,2535,15887,20547,24839,15937,12452,Tag0,unknown
1.56758E+12,0,-301,-6.61E-05,41,51,57,794444,392516,4132,22054,16761655,16765849,12753,18738,Tag0,unknown
1.56758E+12,0,-69,-1.52E-05,43,57,38,16757666,14898,18986,10503,20707,16756981,23974,15828,Tag0,unknown
1.56758E+12,0,71,1.56E-05,38,50,38,239324,28084,5042,1380,1971,5336,670,721,Tag0,unknown
1.56758E+12,0,23,5.05E-06,50,70,38,1804079,16761130,66249,88578,10987,87053,29658,12408,Tag0,unknown
1.56758E+12,0,54,1.19E-05,63,97,38,41185,16749725,9391,16758801,14469,25844,27772,13950,Tag0,unknown
1.56758E+12,0,20,4.39E-06,41,96,50,136732,33597,23974,22708,17104,16754679,23036,24686,Tag0,unknown
1.56758E+12,0,64,1.41E-05,54,84,50,16744722,32050,1011,1946,7851,11209,7799,862,Tag0,unknown
1.56758E+12,0,50,1.10E-05,69,69,50,18137,9006,3977,6049,20318,26334,7612,5622,Tag0,unknown
1.56758E+12,0,68,1.49E-05,78,66,35,344596,26857,16560,21432,10361,16745974,25559,5457,Tag0,unknown
1.56758E+12,0,51,1.12E-05,91,66,35,16771375,29384,10006,15697,16554,16759450,28146,13060,Tag0,unknown
1.56758E+12,0,57,1.25E-05,88,87,35,3723,30606,13909,20212,21397,18705,22674,4361,Tag0,unknown
1.56758E+12,0,-297,-6.53E-05,88,88,35,16754023,7306,4605,7610,20769,25124,29033,7638,Tag0,unknown
1.56758E+12,0,-281,-6.17E-05,77,78,35,266457,74911,6901,22180,28415,20733,16254,12175,Tag0,unknown
1.56758E+12,0,84,1.85E-05,77,81,35,5194,4905,13493,12432,16747082,30337,15910,12544,Tag0,unknown
1.56758E+12,0,25,5.49E-06,87,69,35,35565,11477,1347,2655,4679,8232,3501,2894,Tag0,unknown
1.56758E+12,0,89,1.96E-05,57,70,35,192072,57057,25565,18152,5366,16747962,31136,9257,Tag0,unknown
1.56758E+12,0,60,1.32E-05,77,66,35,663336,18803,1800,3015,1351,14251,3750,1449,Tag0,unknown
1.56758E+12,0,17,3.74E-06,70,67,35,20055,13611,17503,14299,28889,29642,25302,16562,Tag0,unknown
1.56758E+12,0,-296,-6.50E-05,84,70,35,10430,8153,5535,10756,17351,16772288,12736,3911,Tag0,unknown
1.56758E+12,0,34,7.47E-06,91,80,35,155631,9953,5743,6898,2675,9480,4973,1286,Tag0,unknown
1.56758E+12,0,101,2.22E-05,93,88,73,22908,13591,16702,7952,20988,16759608,26638,14517,Tag0,unknown
1.56758E+12,0,-266,-5.84E-05,67,81,73,291304,14943,1582,3863,2538,2197,1890,873,Tag0,unknown
1.56758E+12,0,33,7.25E-06,53,84,73,23644,23802,7943,11626,12667,30060,15628,7181,Tag0,unknown
1.56758E+12,0,70,1.54E-05,56,81,59,16744814,7799,16764,12894,16750616,22587,28402,11653,Tag0,unknown
1.56758E+12,0,104,2.29E-05,23,93,59,107436,12848,12140,5038,1931,1742,1303,2199,Tag0,unknown
1.56758E+12,0,29,6.37E-06,47,88,59,67651,10956,3538,694,5247,12807,4303,3158,Tag0,unknown
1.56758E+12,0,65,1.43E-05,38,87,59,231546,57355,15139,25686,17056,16763904,16758907,10564,Tag0,unknown
1.56758E+12,0,24,5.27E-06,38,80,59,33337,16771064,20244,10390,16746340,16757131,15867,5843,Tag0,unknown
1.56758E+12,0,113,2.48E-05,67,74,59,758221,16754539,16770450,29201,14935,49489,16766666,9558,Tag0,unknown
1.56758E+12,0,-273,-6.00E-05,57,74,59,208257,16752546,1644,8971,4384,17821,7184,2768,Tag0,unknown
1.56758E+12,0,119,2.61E-05,48,66,59,1292600,291091,13133,19638,9693,16754600,30402,22991,Tag0,unknown
1.56758E+12,0,-274,-6.02E-05,27,61,59,1736779,499538,16760319,16745423,27161,16769443,78890,10134,Tag0,unknown
1.56758E+12,0,97,2.13E-05,26,50,59,489469,16760840,9667,8554,8054,16761847,8357,9943,Tag0,unknown
1.56758E+12,0,35,7.69E-06,43,50,59,8947,16432,14952,4085,16769288,16763800,18383,15071,Tag0,unknown
1.56758E+12,0,-376,-8.26E-05,77,50,59,11657,13634,1787,5018,9345,16757221,27716,4719,Tag0,unknown
1.56758E+12,0,69,1.52E-05,84,56,59,267598,131514,11187,16754924,23364,16751055,13051,18267,Tag0,unknown
1.56758E+12,0,89,1.96E-05,75,51,59,392143,57823,12992,3581,19354,16755916,20018,14401,Tag0,unknown
1.56758E+12,0,101,2.22E-05,64,50,59,112737,46188,9156,22601,28587,91058,29742,19770,Tag0,unknown
1.56758E+12,0,85,1.87E-05,50,67,59,18395,25045,27252,29621,19114,16762742,69463,5506,Tag0,unknown
1.56758E+12,0,-275,-6.04E-05,51,57,59,296911,33206,5444,9951,6427,26035,13626,8011,Tag0,unknown
1.56758E+12,0,-226,-4.97E-05,53,81,59,12338,10282,5005,16745963,14119,16405,9474,5477,Tag0,unknown
1.56758E+12,0,113,2.48E-05,30,81,59,1015260,209822,16747621,6212,23983,28146,23623,3560,Tag0,unknown
1.56758E+12,0,57,1.25E-05,37,78,44,157550,5805,13181,7581,19316,27769,14766,10790,Tag0,unknown
1.56758E+12,0,-302,-6.64E-05,35,90,44,163874,29447,11228,2956,8100,8050,2573,1961,Tag0,unknown
1.56758E+12,0,42,9.23E-06,43,66,44,16757087,97121,6989,11197,22402,83002,16751575,12042,Tag0,unknown
1.56758E+12,0,85,1.87E-05,64,67,44,7081,16752493,3220,12282,17783,32200,23760,7752,Tag0,unknown
1.56758E+12,0,22,4.83E-06,50,57,58,141086,110303,16748662,6896,15249,16774706,21648,11622,Tag0,unknown
1.56758E+12,0,-265,-5.82E-05,43,54,58,611112,319781,39484,18389,16770988,16771061,16763025,22902,Tag0,unknown
1.56758E+12,0,21,4.61E-06,35,69,58,109286,17814,10603,4473,6280,11545,11162,3096,Tag0,unknown
timestampMs,poorSignal,eegRawValue,eegRawValueVolts,attention,meditation,blinkStrength,delta,theta,alphaLow,alphaHigh,betaLow,betaHigh,gammaLow,gammaMid,tagEvent,location
1.56758E+12,25,119,2.61E-05,0,0,45,658,567,314,273,16777125,82,35,9,Tag0,unknown
1.56758E+12,0,48,1.05E-05,0,0,45,764391,219635,16759993,26398,16757950,16747100,21560,29699,Tag0,unknown
1.56758E+12,0,36,7.91E-06,0,0,45,185709,84809,16747032,15428,20703,19000,10336,23450,Tag0,unknown
1.56758E+12,0,53,1.16E-05,0,0,52,16773959,62265,12640,16750369,19053,27600,23525,4542,Tag0,unknown
1.56758E+12,0,-294,-6.46E-05,30,30,35,550750,347917,16775617,16750263,29174,30931,18403,6785,Tag0,unknown
1.56758E+12,0,8,1.76E-06,54,54,35,7722,22881,28212,5896,15890,23473,14848,3530,Tag0,unknown
1.56758E+12,0,-329,-7.23E-05,78,74,35,16748226,11060,5310,12763,8067,22077,11398,9994,Tag0,unknown
1.56758E+12,0,51,1.12E-05,78,96,35,1973252,89399,25920,66864,12826,30467,23332,15422,Tag0,unknown
1.56758E+12,0,-264,-5.80E-05,100,100,35,146841,22380,7568,13341,18298,23215,16664,4507,Tag0,unknown
1.56758E+12,0,18,3.96E-06,75,61,35,2167942,127985,9102,22154,16757447,26402,29905,3366,Tag0,unknown
1.56758E+12,0,9,1.98E-06,74,56,35,35392,25341,10806,21051,16035,16747790,21070,14409,Tag0,unknown
1.56758E+12,0,-315,-6.92E-05,61,14,35,139441,16766716,5203,2862,7929,5141,5725,2569,Tag0,unknown
1.56758E+12,0,92,2.02E-05,61,27,35,3934,30612,13992,19910,19972,16744616,7048,2231,Tag0,unknown
1.56758E+12,0,-342,-7.51E-05,54,27,39,215773,16769851,1422,5657,5370,5298,8987,4710,Tag0,unknown
1.56758E+12,0,50,1.10E-05,16,1,39,603691,204485,8676,2387,5645,11582,10052,3192,Tag0,unknown
1.56758E+12,0,82,1.80E-05,47,23,39,284634,16762411,16506,9983,16119,16751154,7423,5565,Tag0,unknown
1.56758E+12,0,-259,-5.69E-05,48,27,39,22242,14233,8876,18674,20113,28423,25775,5156,Tag0,unknown
1.56758E+12,0,25,5.49E-06,83,69,39,17033,4090,12812,18544,9392,16744380,22041,4050,Tag0,unknown
1.56758E+12,0,64,1.41E-05,100,100,36,16770700,24592,8221,30101,23544,30888,23728,4385,Tag0,unknown
1.56758E+12,0,49,1.08E-05,100,100,36,1985579,23432,14074,9879,20801,31015,16774307,5501,Tag0,unknown
1.56758E+12,0,61,1.34E-05,100,100,36,5703,21243,16746450,14050,17266,82280,29167,19264,Tag0,unknown
1.56758E+12,0,4,8.79E-07,100,80,36,16747586,16760357,6244,6547,6432,25082,8331,16718,Tag0,unknown
1.56758E+12,0,-122,-2.68E-05,94,64,36,253021,16759916,5163,12378,24038,23385,30663,4646,Tag0,unknown
1.56758E+12,0,68,1.49E-05,97,64,36,7892,10317,7836,5104,12337,25765,18335,4479,Tag0,unknown
1.56758E+12,0,-259,-5.69E-05,90,61,36,18597,18360,4973,16052,19431,25655,16864,7451,Tag0,unknown
1.56758E+12,0,42,9.23E-06,96,61,36,67451,12507,402,2936,1389,9896,8612,2860,Tag0,unknown
1.56758E+12,0,103,2.26E-05,100,63,36,4823,11718,4692,3744,7657,22944,14493,11827,Tag0,unknown
1.56758E+12,0,-262,-5.76E-05,100,61,36,14798,31238,9284,12068,25162,21395,11627,12021,Tag0,unknown
1.56758E+12,0,115,2.53E-05,100,53,36,20049,26190,10573,5705,27860,16746523,23401,9203,Tag0,unknown
1.56758E+12,0,123,2.70E-05,84,64,36,33200,25783,11095,2043,9538,5818,4962,2031,Tag0,unknown
1.56758E+12,0,60,1.32E-05,64,60,36,488136,16773646,9391,6068,16862,20766,14168,8698,Tag0,unknown
1.56758E+12,0,-275,-6.04E-05,64,53,36,127217,78380,17693,8316,23953,16749105,23327,6282,Tag0,unknown
1.56758E+12,0,-276,-6.06E-05,50,61,36,665314,16768214,16922,13219,8948,24521,17192,7871,Tag0,unknown
1.56758E+12,0,-80,-1.76E-05,69,63,36,99109,29754,21242,7120,12570,16748468,31626,16385,Tag0,unknown
1.56758E+12,0,87,1.91E-05,84,70,36,90309,6914,3726,1305,3196,9470,10980,1859,Tag0,unknown
1.56758E+12,0,-112,-2.46E-05,88,93,36,51359,16745890,6888,16759576,10007,16753082,16761159,17782,Tag0,unknown
1.56758E+12,0,-365,-8.02E-05,80,88,36,107685,126216,17108,16755692,19111,16750269,22562,7373,Tag0,unknown
1.56758E+12,0,-313,-6.88E-05,57,69,36,266063,130854,30798,1478,16759425,28769,14574,19107,Tag0,unknown
1.56758E+12,0,-117,-2.57E-05,41,77,47,16766812,9091,4172,3677,6556,3873,3655,5232,Tag0,unknown
1.56758E+12,0,-257,-5.65E-05,51,60,47,22221,23772,6765,14487,16306,16763487,16756308,16747840,Tag0,unknown
1.56758E+12,0,33,7.25E-06,63,53,47,91141,13594,1458,2410,7189,6185,7362,1778,Tag0,unknown
1.56758E+12,0,38,8.35E-06,77,63,47,73856,22643,5449,2194,4375,10871,4447,2874,Tag0,unknown
1.56758E+12,0,-306,-6.72E-05,97,38,47,12842,19502,2543,4523,9668,16757568,16745552,10988,Tag0,unknown
1.56758E+12,0,117,2.57E-05,84,29,47,702483,73859,5910,13999,17122,16754462,31423,11374,Tag0,unknown
1.56758E+12,0,104,2.29E-05,66,23,42,441399,16769696,434,7235,7916,7500,10379,2908,Tag0,unknown
1.56758E+12,0,-321,-7.05E-05,48,35,42,1849760,259096,142814,27535,24432,16756929,16760122,21439,Tag0,unknown
1.56758E+12,0,-278,-6.11E-05,40,51,42,659946,17731,6937,7221,4762,26647,8197,5034,Tag0,unknown
1.56758E+12,0,-279,-6.13E-05,43,64,42,12927,16748815,10808,20589,15595,16757067,16748942,4595,Tag0,unknown
1.56758E+12,0,16,3.52E-06,50,54,42,342925,89487,1646,3257,1870,15603,3331,3915,Tag0,unknown
1.56758E+12,0,76,1.67E-05,84,44,42,4068,8343,4996,9555,17491,16756689,14406,19789,Tag0,unknown
1.56758E+12,0,26,5.71E-06,66,51,42,404636,16776279,19817,12298,1926,16414,5358,6054,Tag0,unknown
1.56758E+12,0,85,1.87E-05,67,50,42,509030,16757005,16843,17509,14357,16775408,18840,27986,Tag0,unknown
1.56758E+12,0,68,1.49E-05,87,87,42,316361,15790,4094,27256,7850,16753336,28217,3898,Tag0,unknown
1.56758E+12,0,-315,-6.92E-05,74,96,42,290437,27119,11709,19748,13696,16750089,20739,4852,Tag0,unknown
1.56758E+12,0,17,3.74E-06,97,69,42,6785,16750215,4153,5765,9601,76441,12931,9917,Tag0,unknown
1.56758E+12,0,55,1.21E-05,88,75,42,136252,13852,6962,1871,4030,7276,9703,2248,Tag0,unknown
1.56758E+12,0,-275,-6.04E-05,96,51,42,11715,13008,4797,5469,6610,80935,13661,2334,Tag0,unknown
1.56758E+12,0,83,1.82E-05,78,50,42,592559,40334,24388,16746100,21119,25325,29850,4049,Tag0,unknown
1.56758E+12,0,-306,-6.72E-05,51,66,42,231322,140783,9110,28157,16872,32545,13085,30874,Tag0,unknown
timestampMs,poorSignal,eegRawValue,eegRawValueVolts,attention,meditation,blinkStrength,delta,theta,alphaLow,alphaHigh,betaLow,betaHigh,gammaLow,gammaMid,tagEvent,location
1.56758E+12,0,101,2.22E-05,61,53,38,16760098,16744925,6675,7349,19465,14365,19974,4194,Tag0,unknown
1.56758E+12,0,8,1.76E-06,56,37,43,207347,165926,22241,16768456,19875,14724,16745939,11182,Tag0,unknown
1.56758E+12,0,55,1.21E-05,60,63,43,90459,22133,16137,21711,16747759,24329,16873,2330,Tag0,unknown
1.56758E+12,0,-306,-6.72E-05,64,44,89,671712,16758522,22549,25819,16764329,21974,29859,6108,Tag0,unknown
1.56758E+12,0,91,2.00E-05,48,50,40,53336,16757288,8410,5212,4690,4536,6894,2376,Tag0,unknown
1.56758E+12,0,55,1.21E-05,81,38,40,68196,19751,4273,4465,12277,28016,12456,3710,Tag0,unknown
1.56758E+12,0,82,1.80E-05,61,35,42,16765732,16772050,17385,11449,13211,5888,5440,718,Tag0,unknown
1.56758E+12,0,41,9.01E-06,66,38,42,654775,16746535,19380,15755,20860,25074,22337,9051,Tag0,unknown
1.56758E+12,0,-269,-5.91E-05,87,64,42,13921,12106,26440,16750195,10593,16751825,12437,4801,Tag0,unknown
1.56758E+12,0,27,5.93E-06,77,83,42,6456,16746069,20838,3765,11508,18968,15059,16253,Tag0,unknown
1.56758E+12,0,11,2.42E-06,100,78,42,6576,19751,15669,2641,16567,24645,24920,7579,Tag0,unknown
1.56758E+12,0,64,1.41E-05,100,69,42,29088,16747566,12671,8935,8028,23430,16486,4434,Tag0,unknown
1.56758E+12,0,1,2.20E-07,96,50,42,16748451,16754910,8727,18166,9407,20959,9843,8519,Tag0,unknown
1.56758E+12,0,58,1.27E-05,96,51,42,47511,21890,14153,3883,7041,11789,6772,976,Tag0,unknown
1.56758E+12,0,-105,-2.31E-05,90,66,42,9167,16753945,16752703,3799,7952,29486,11634,4576,Tag0,unknown
1.56758E+12,0,49,1.08E-05,75,70,42,26655,69860,27351,19730,16749086,12612,11568,8236,Tag0,unknown
1.56758E+12,0,-127,-2.79E-05,54,64,42,46211,69416,5697,14451,7234,4533,7284,2209,Tag0,unknown
1.56758E+12,0,67,1.47E-05,64,50,42,485838,16745319,7436,18005,16751453,16755250,27843,5201,Tag0,unknown
1.56758E+12,0,29,6.37E-06,69,37,39,22775,10056,4233,4164,7765,10748,4476,1096,Tag0,unknown
1.56758E+12,0,-265,-5.82E-05,94,17,39,2706,6778,2857,10653,16757826,16746022,31645,19066,Tag0,unknown
1.56758E+12,0,39,8.57E-06,90,3,39,649365,160005,140,8263,12017,6735,3572,2494,Tag0,unknown
1.56758E+12,0,38,8.35E-06,78,24,39,16768375,3768,2096,8320,8457,6035,2747,1204,Tag0,unknown
1.56758E+12,0,-258,-5.67E-05,83,23,39,16145,7380,8628,5014,16746416,16747963,26583,3479,Tag0,unknown
1.56758E+12,0,-260,-5.71E-05,66,24,39,28513,16768570,5279,3851,22090,20654,30827,7045,Tag0,unknown
1.56758E+12,0,-267,-5.87E-05,96,53,39,14931,7135,3292,13172,17359,19103,25775,8263,Tag0,unknown
1.56758E+12,0,16,3.52E-06,100,37,39,29277,24047,4343,5687,7099,32429,21224,12099,Tag0,unknown
1.56758E+12,0,73,1.60E-05,94,54,39,23397,10851,26810,8186,11552,30615,32498,11035,Tag0,unknown
1.56758E+12,0,103,2.26E-05,100,66,39,14976,6558,6600,10975,16746686,16745647,26931,19977,Tag0,unknown
1.56758E+12,0,60,1.32E-05,93,43,39,179231,57120,10724,1430,8332,19943,8812,1494,Tag0,unknown
1.56758E+12,0,2,4.39E-07,83,54,36,157707,139677,16757245,28016,10878,68917,66301,17248,Tag0,unknown
1.56758E+12,0,-273,-6.00E-05,84,50,43,43208,13247,9126,21814,20360,16745964,27052,12866,Tag0,unknown
1.56758E+12,0,34,7.47E-06,66,47,43,96991,27951,5766,2772,10540,8462,6728,2044,Tag0,unknown
1.56758E+12,0,-276,-6.06E-05,78,77,43,536472,28322,13370,16747698,9293,16747647,14433,5222,Tag0,unknown
1.56758E+12,0,61,1.34E-05,77,66,43,42404,24967,5434,1427,9780,7615,1950,2277,Tag0,unknown
1.56758E+12,0,85,1.87E-05,64,66,43,63601,5429,2883,4983,7492,3097,5073,2084,Tag0,unknown
1.56758E+12,0,-73,-1.60E-05,75,84,46,79842,2015,5275,6342,4255,10042,4005,2130,Tag0,unknown
1.56758E+12,0,-280,-6.15E-05,70,74,46,63318,16375,5857,3073,4498,8896,6211,2118,Tag0,unknown
1.56758E+12,0,-264,-5.80E-05,77,83,46,23380,24430,5045,20089,20091,21921,21509,10130,Tag0,unknown
1.56758E+12,0,52,1.14E-05,94,70,46,5240,4233,8209,6970,18390,16761457,18461,6266,Tag0,unknown
1.56758E+12,0,125,2.75E-05,93,64,46,6662,12559,11351,11122,15724,22540,19914,3420,Tag0,unknown
1.56758E+12,0,36,7.91E-06,97,63,46,28853,20561,6961,14374,29970,16750223,22024,7512,Tag0,unknown
1.56758E+12,0,68,1.49E-05,100,51,46,1587,28307,12115,858,13333,16752559,15141,19794,Tag0,unknown
1.56758E+12,0,6,1.32E-06,83,47,39,164908,16748680,2417,4267,1430,9263,4178,2934,Tag0,unknown
1.56758E+12,0,18,3.96E-06,78,54,39,23249,16497,22270,18523,16754,23632,16490,14720,Tag0,unknown
1.56758E+12,0,112,2.46E-05,87,51,39,16752247,6842,5189,4980,8834,16744972,24686,7497,Tag0,unknown
1.56758E+12,0,103,2.26E-05,90,57,39,705,6684,10276,6464,16746050,16747158,14309,1424,Tag0,unknown
1.56758E+12,0,38,8.35E-06,100,61,39,11544,17129,8690,3461,26387,20548,19759,16288,Tag0,unknown
1.56758E+12,0,-264,-5.80E-05,96,48,39,92939,11855,1910,3493,2392,5415,4257,1795,Tag0,unknown
1.56758E+12,0,17,3.74E-06,83,61,39,24234,9443,7170,9453,10086,11501,10378,10716,Tag0,unknown
1.56758E+12,0,75,1.65E-05,75,75,39,3752,12653,11594,25217,24625,28882,16748074,10661,Tag0,unknown
1.56758E+12,0,89,1.96E-05,70,69,39,16745830,25840,2353,4873,7850,17144,16691,7093,Tag0,unknown
1.56758E+12,0,1,2.20E-07,84,66,39,2847,11954,2921,12277,26706,16745468,9413,4556,Tag0,unknown
1.56758E+12,0,37,8.13E-06,81,69,39,93533,16762370,16756798,9864,10289,28191,10202,7703,Tag0,unknown
1.56758E+12,0,42,9.23E-06,67,44,39,133412,148570,14390,5575,26491,22420,14590,8020,Tag0,unknown
1.56758E+12,0,51,1.12E-05,70,56,39,96054,2753,243,3157,2995,5305,1783,1722,Tag0,unknown
1.56758E+12,0,72,1.58E-05,47,54,39,901811,16749710,4497,4852,6213,3462,5437,2433,Tag0,unknown
1.56758E+12,0,21,4.61E-06,41,47,39,773817,157077,16745644,16751937,8245,16748538,19198,25158,Tag0,unknown
1.56758E+12,0,1,2.20E-07,51,56,39,16752315,16757460,8768,6210,12730,25724,24734,8202,Tag0,unknown
1.56758E+12,0,-257,-5.65E-05,56,47,39,11411,14297,6224,4808,20847,16746111,13460,15979,Tag0,unknown
timestampMs,poorSignal,eegRawValue,eegRawValueVolts,attention,meditation,blinkStrength,delta,theta,alphaLow,alphaHigh,betaLow,betaHigh,gammaLow,gammaMid,tagEvent,location
1.56667E+12,0,59,1.30E-05,38,37,38,22718,23962,4269,1397,3622,5790,2040,1299,Tag0,unknown
1.56667E+12,0,-135,-2.97E-05,30,43,38,401843,78630,30336,5862,24007,8630,24262,7374,Tag0,unknown
1.56667E+12,0,56,1.23E-05,14,34,49,341740,86564,2666,4169,2875,13061,10340,3289,Tag0,unknown
1.56667E+12,0,5,1.10E-06,11,34,49,2667496,211965,88624,12688,22987,16762537,91613,16053,Tag0,unknown
1.56667E+12,0,-263,-5.78E-05,11,34,49,2667496,211965,88624,12688,22987,16762537,91613,16053,Tag0,unknown
1.56667E+12,0,102,2.24E-05,14,37,49,739278,133655,17290,19659,23974,16752792,16769697,15705,Tag0,unknown
1.56667E+12,0,96,2.11E-05,17,26,37,136877,16754791,7039,3945,4464,9278,5216,4625,Tag0,unknown
1.56667E+12,0,-257,-5.65E-05,24,11,37,1161639,147483,5206,14236,21905,16762305,22609,16836,Tag0,unknown
1.56667E+12,0,44,9.67E-06,21,10,37,46823,47512,14842,5629,5440,26804,7255,5037,Tag0,unknown
1.56667E+12,0,21,4.61E-06,54,24,37,19613,12512,1665,10398,21722,16761515,16756440,22917,Tag0,unknown
1.56667E+12,0,54,1.19E-05,44,13,37,2751034,439711,19825,23887,12536,16753946,26977,32375,Tag0,unknown
1.56667E+12,0,37,8.13E-06,30,11,37,124306,102664,5134,10595,15667,15021,3877,14613,Tag0,unknown
1.56667E+12,0,59,1.30E-05,44,11,37,1147564,70256,7781,14072,18108,16772652,19955,13845,Tag0,unknown
1.56667E+12,0,-328,-7.21E-05,37,1,37,56975,16973,483,1153,4869,17449,13299,2458,Tag0,unknown
1.56667E+12,0,100,2.20E-05,53,8,37,54261,18119,1442,2054,661,6916,3259,1311,Tag0,unknown
1.56667E+12,0,64,1.41E-05,60,20,37,1117445,353833,24455,66247,27957,71637,16748578,21200,Tag0,unknown
1.56667E+12,0,-261,-5.73E-05,38,13,37,1281970,522696,16745158,15467,12325,16766877,16751524,31176,Tag0,unknown
1.56667E+12,0,96,2.11E-05,14,20,37,224527,60632,10607,5051,11047,13295,7558,8708,Tag0,unknown
1.56667E+12,0,81,1.78E-05,13,17,39,1824702,286181,16747721,14443,16759382,95244,30547,16443,Tag0,unknown
1.56667E+12,0,56,1.23E-05,10,17,37,943523,483909,42259,21091,32050,77906,27046,14065,Tag0,unknown
1.56667E+12,0,40,8.79E-06,10,51,37,1029830,155125,149112,16758935,18192,27977,16757403,31235,Tag0,unknown
1.56667E+12,0,-121,-2.66E-05,38,54,37,5921,16745692,7576,10407,16746781,67482,16748407,10110,Tag0,unknown
1.56667E+12,0,40,8.79E-06,34,53,37,626384,188413,12506,23027,16769615,16761438,25231,16757,Tag0,unknown
1.56667E+12,0,-302,-6.64E-05,40,60,37,92356,30673,11329,5979,7320,11086,5489,4261,Tag0,unknown
1.56667E+12,0,-299,-6.57E-05,61,43,37,537205,27762,25731,6471,16755364,16751127,30612,7836,Tag0,unknown
1.56667E+12,0,115,2.53E-05,43,43,37,713454,74793,9878,9396,16749052,23955,18094,10010,Tag0,unknown
1.56667E+12,0,7,1.54E-06,37,50,37,182409,76947,8491,4873,6204,8061,11447,2484,Tag0,unknown
1.56667E+12,0,89,1.96E-05,34,48,38,43983,16752675,8536,9441,1540,11663,8668,1583,Tag0,unknown
1.56667E+12,0,24,5.27E-06,21,51,38,660193,61291,16757205,26867,10995,16756174,23697,13124,Tag0,unknown
1.56667E+12,0,-289,-6.35E-05,13,51,38,557249,187780,30470,13556,26040,16744822,19121,5621,Tag0,unknown
1.56667E+12,0,101,2.22E-05,30,63,38,1744450,91252,16761095,21305,16746028,73893,84452,16939,Tag0,unknown
1.56667E+12,0,28,6.15E-06,40,57,38,139515,89819,16123,18755,12403,16765916,23670,5166,Tag0,unknown
1.56667E+12,0,-121,-2.66E-05,37,30,38,980070,342749,1276,18771,14776,16771782,28100,11140,Tag0,unknown
1.56667E+12,0,29,6.37E-06,43,43,38,350426,16765621,18565,7452,3846,15996,13712,6986,Tag0,unknown
1.56667E+12,0,64,1.41E-05,40,30,38,287671,14326,657,1784,762,5909,2660,849,Tag0,unknown
1.56667E+12,0,-307,-6.75E-05,26,41,38,3108044,374980,169657,16745301,22181,79728,67700,18135,Tag0,unknown
1.56667E+12,0,-108,-2.37E-05,29,53,38,178528,16754012,3566,4713,11759,11510,15132,2540,Tag0,unknown
1.56667E+12,0,-323,-7.10E-05,35,67,38,34187,10848,6774,29111,3848,15296,9649,2207,Tag0,unknown
1.56667E+12,0,6,1.32E-06,34,90,38,17057,27408,12940,16755918,16746187,23652,15125,13662,Tag0,unknown
1.56667E+12,0,9,1.98E-06,35,100,38,331188,16489,6895,19633,4404,5158,6284,1597,Tag0,unknown
1.56667E+12,0,96,2.11E-05,40,100,38,54859,68523,3978,17049,14748,16745288,22384,6092,Tag0,unknown
1.56667E+12,0,-79,-1.74E-05,29,70,38,107878,16754082,1223,3965,7614,6636,11521,2338,Tag0,unknown
1.56667E+12,0,90,1.98E-05,37,67,38,23592,12809,19092,20810,16746804,24655,16746596,3771,Tag0,unknown
1.56667E+12,0,25,5.49E-06,30,53,38,358739,36677,24844,17902,6306,10393,11403,3031,Tag0,unknown
1.56667E+12,0,121,2.66E-05,27,47,38,970228,16765448,4291,3601,4736,17347,13595,9898,Tag0,unknown
1.56667E+12,0,-379,-8.33E-05,26,60,38,623062,45552,20739,15002,10846,19593,11131,5183,Tag0,unknown
1.56667E+12,0,56,1.23E-05,4,29,38,151456,84820,1703,2748,1844,5052,1408,509,Tag0,unknown
1.56667E+12,0,26,5.71E-06,1,41,42,909591,380091,94061,24173,16744669,16750857,79643,20884,Tag0,unknown
1.56667E+12,0,56,1.23E-05,1,41,42,909591,380091,94061,24173,16744669,16750857,79643,20884,Tag0,unknown
1.56667E+12,0,123,2.70E-05,3,40,42,209502,71267,5462,15999,6141,16038,13982,6133,Tag0,unknown
1.56667E+12,0,20,4.39E-06,14,56,42,502971,16772459,8944,4037,3906,13557,10597,2638,Tag0,unknown
1.56667E+12,0,91,2.00E-05,4,37,42,1683148,546258,20048,29226,30594,16764743,16774797,16747832,Tag0,unknown
1.56667E+12,0,69,1.52E-05,8,34,42,349375,210410,16752002,20404,38893,27211,30568,11539,Tag0,unknown
1.56667E+12,0,-122,-2.68E-05,1,27,40,1484130,318369,15646,16761115,15205,16754182,25419,15500,Tag0,unknown
1.56667E+12,0,67,1.47E-05,4,56,40,274834,79977,16754230,6415,12294,16404,6346,4996,Tag0,unknown
1.56667E+12,0,-276,-6.06E-05,4,56,40,274834,79977,16754230,6415,12294,16404,6346,4996,Tag0,unknown
1.56667E+12,0,85,1.87E-05,7,47,40,1375574,72241,1293,6076,11372,9715,14045,7775,Tag0,unknown
1.56667E+12,0,-301,-6.61E-05,34,60,40,116562,9101,5012,16370,10379,16744456,16748206,4101,Tag0,unknown
1.56667E+12,0,37,8.13E-06,37,43,40,175194,16769972,378,6702,7209,12883,16122,3927,Tag0,unknown
timestampMs,poorSignal,eegRawValue,eegRawValueVolts,attention,meditation,blinkStrength,delta,theta,alphaLow,alphaHigh,betaLow,betaHigh,gammaLow,gammaMid,tagEvent,location
1.56761E+12,25,-128,-2.81E-05,0,0,62,55,3,0,1,2,1,0,0,Tag0,unknown
1.56761E+12,0,6,1.32E-06,0,0,62,401153,115843,16748237,17781,10011,14610,12301,9285,Tag0,unknown
1.56761E+12,0,-290,-6.37E-05,0,0,62,382855,293960,16763233,25191,6385,30933,22516,19455,Tag0,unknown
1.56761E+12,0,41,9.01E-06,0,0,62,18827,30050,11945,16747361,18450,16770505,18538,16673,Tag0,unknown
1.56761E+12,0,27,5.93E-06,48,54,62,13902,30969,14308,19000,11911,29226,19101,9078,Tag0,unknown
1.56761E+12,0,83,1.82E-05,63,74,62,9854,25428,16749036,14324,5760,16773313,19260,2911,Tag0,unknown
1.56761E+12,0,33,7.25E-06,84,54,62,9369,13755,3133,4567,13993,16757796,24827,7450,Tag0,unknown
1.56761E+12,0,115,2.53E-05,100,61,62,28396,18603,8386,30768,7347,16762570,14841,17228,Tag0,unknown
1.56761E+12,0,8,1.76E-06,100,51,62,6051,16121,12413,5605,12245,21540,24033,4898,Tag0,unknown
1.56761E+12,0,6,1.32E-06,87,78,62,23752,16745265,13193,15191,15259,29336,14530,12004,Tag0,unknown
1.56761E+12,0,16,3.52E-06,87,67,62,14736,13494,4793,4992,16351,16295,16767,3727,Tag0,unknown
1.56761E+12,0,49,1.08E-05,81,50,62,666779,66091,13840,13977,19516,16755397,17125,2816,Tag0,unknown
1.56761E+12,0,26,5.71E-06,81,57,62,6768,9627,14116,4122,10143,15810,16741,10239,Tag0,unknown
1.56761E+12,0,-284,-6.24E-05,88,43,62,50443,6417,380,3459,4809,11086,3393,1276,Tag0,unknown
1.56761E+12,0,-293,-6.44E-05,67,54,62,885526,261874,48065,28535,21651,16746842,13456,4255,Tag0,unknown
1.56761E+12,0,45,9.89E-06,67,54,62,203737,17964,1339,4851,1667,10333,5608,1323,Tag0,unknown
1.56761E+12,0,-306,-6.72E-05,63,53,62,1531849,16757427,16745085,6058,17953,25911,24946,20756,Tag0,unknown
1.56761E+12,0,49,1.08E-05,47,63,62,153799,16744751,481,12506,7178,7189,6293,880,Tag0,unknown
1.56761E+12,0,24,5.27E-06,63,70,62,16764417,28739,17501,29405,25029,16745487,23439,15667,Tag0,unknown
1.56761E+12,0,37,8.13E-06,70,64,62,86906,9187,2010,2533,2947,16315,5440,1061,Tag0,unknown
1.56761E+12,0,41,9.01E-06,75,75,62,15303,12371,15796,31412,12568,27601,14825,4167,Tag0,unknown
1.56761E+12,0,-262,-5.76E-05,87,74,62,12137,17472,14168,28905,87697,16746211,19912,7933,Tag0,unknown
1.56761E+12,0,71,1.56E-05,81,57,62,16751953,10871,5504,311,3628,5014,2190,1780,Tag0,unknown
1.56761E+12,0,-226,-4.97E-05,70,91,62,16770198,16750794,20522,75671,23603,16760410,14048,20105,Tag0,unknown
1.56761E+12,0,89,1.96E-05,64,91,62,148187,10236,15975,16750538,19059,15126,21963,3153,Tag0,unknown
1.56761E+12,0,-277,-6.09E-05,51,96,62,80812,20226,5233,9516,4509,4614,8555,1260,Tag0,unknown
1.56761E+12,0,4,8.79E-07,57,96,62,19050,16747842,13290,25913,25976,16758504,14011,13520,Tag0,unknown
1.56761E+12,0,22,4.83E-06,60,83,62,7008,8797,6768,16744694,16752197,18702,18203,16338,Tag0,unknown
1.56761E+12,0,-257,-5.65E-05,64,74,62,9797,15384,15082,14363,8467,17848,10294,9803,Tag0,unknown
1.56761E+12,0,104,2.29E-05,83,53,62,29209,21857,4201,8776,22152,16755819,30426,18336,Tag0,unknown
1.56761E+12,0,-258,-5.67E-05,87,61,62,3105,8387,14203,16745741,17996,16759365,24870,8550,Tag0,unknown
1.56761E+12,0,68,1.49E-05,83,54,62,82625,7868,1977,4002,4198,4751,9052,1755,Tag0,unknown
1.56761E+12,0,39,8.57E-06,81,63,62,9888,4974,4688,16771362,4221,21116,15654,8836,Tag0,unknown
1.56761E+12,0,21,4.61E-06,77,75,62,298360,30136,18332,8665,9795,16748836,20215,5511,Tag0,unknown
1.56761E+12,0,21,4.61E-06,67,60,62,159707,16764264,17187,5503,5003,22784,5709,3284,Tag0,unknown
1.56761E+12,0,34,7.47E-06,70,51,62,16748487,28734,12193,3982,19082,24235,29959,11056,Tag0,unknown
1.56761E+12,0,-347,-7.62E-05,66,26,62,278060,16766024,13856,13882,6358,14570,12696,4025,Tag0,unknown
1.56761E+12,0,-258,-5.67E-05,60,43,62,130395,3723,6321,3507,1483,4215,1798,246,Tag0,unknown
1.56761E+12,0,-294,-6.46E-05,57,50,62,131288,25583,16687,2257,3551,9510,5982,2386,Tag0,unknown
1.56761E+12,0,20,4.39E-06,56,56,62,16763429,25747,28529,9217,16744953,30674,16752097,16231,Tag0,unknown
1.56761E+12,0,-257,-5.65E-05,77,48,62,1922,7436,2269,8486,9895,16750134,16749927,8623,Tag0,unknown
1.56761E+12,0,116,2.55E-05,81,14,62,88007,24943,1991,2131,4191,16614,4701,1947,Tag0,unknown
1.56761E+12,0,88,1.93E-05,80,3,62,264144,16751653,7418,2163,2162,8549,2742,5661,Tag0,unknown
1.56761E+12,0,25,5.49E-06,75,1,62,149888,23833,2629,3790,5161,7799,9440,1234,Tag0,unknown
1.56761E+12,0,23,5.05E-06,67,3,62,16752367,11442,13141,5784,7232,32427,14356,14287,Tag0,unknown
1.56761E+12,0,100,2.20E-05,69,24,62,3228,16267,23768,12509,13778,16748420,25174,17434,Tag0,unknown
1.56761E+12,0,53,1.16E-05,93,20,62,5122,6418,2821,16355,31885,86248,16748799,18629,Tag0,unknown
1.56761E+12,0,19,4.17E-06,97,34,62,157056,16771606,75751,6515,30828,75164,26464,9650,Tag0,unknown
1.56761E+12,0,20,4.39E-06,96,29,62,74117,30487,14448,21339,20453,16771157,18698,5983,Tag0,unknown
1.56761E+12,0,33,7.25E-06,90,21,62,83815,16762922,16213,12673,16748945,29158,23117,16747,Tag0,unknown
1.56761E+12,0,-74,-1.63E-05,75,20,62,193825,29352,4896,1211,3725,16722,6909,5057,Tag0,unknown
1.56761E+12,0,26,5.71E-06,63,11,41,333634,16770631,17592,3574,5242,11162,9326,3302,Tag0,unknown
1.56761E+12,0,51,1.12E-05,51,1,41,334000,207758,8135,28687,13845,16763242,16745003,16749360,Tag0,unknown
1.56761E+12,0,42,9.23E-06,51,3,41,550128,30979,13049,7716,16067,19209,23917,8993,Tag0,unknown
1.56761E+12,0,18,3.96E-06,44,4,32,32260,159758,27351,3167,19932,16751375,16747512,3524,Tag0,unknown
1.56761E+12,0,22,4.83E-06,51,13,32,270097,16761931,22736,16750995,16753027,16746312,17766,7882,Tag0,unknown
1.56761E+12,0,44,9.67E-06,54,43,32,15599,8175,10835,29164,6468,14153,16748556,12503,Tag0,unknown
1.56761E+12,0,85,1.87E-05,50,44,32,611705,16776224,22501,25122,16744910,26168,28062,10113,Tag0,unknown
1.56761E+12,0,-277,-6.09E-05,56,54,32,618209,16771724,5247,16746123,23914,16753164,20620,12641,Tag0,unknown
timestampMs,poorSignal,eegRawValue,eegRawValueVolts,attention,meditation,blinkStrength,delta,theta,alphaLow,alphaHigh,betaLow,betaHigh,gammaLow,gammaMid,tagEvent,location
1.56761E+12,0,-112,-2.46E-05,34,13,41,285123,35765,10868,23273,31804,12130,7829,3274,Tag0,unknown
1.56761E+12,0,67,1.47E-05,53,4,41,1221038,146612,16768491,22279,27717,16750547,16758503,6034,Tag0,unknown
1.56761E+12,0,-119,-2.61E-05,63,14,41,808509,16756364,16751564,30247,16759047,17891,12601,11618,Tag0,unknown
1.56761E+12,0,6,1.32E-06,75,34,38,3303700,81573,16752687,16746459,9130,30809,12316,14385,Tag0,unknown
1.56761E+12,0,-269,-5.91E-05,100,34,38,302826,89048,16744618,10548,16762685,16752799,16749854,9179,Tag0,unknown
1.56761E+12,0,-324,-7.12E-05,100,56,38,110214,12409,6659,13944,4981,8855,5939,3518,Tag0,unknown
1.56761E+12,0,93,2.04E-05,100,27,40,520381,74724,10080,20843,30800,16755817,11426,4298,Tag0,unknown
1.56761E+12,0,25,5.49E-06,100,34,40,16744715,18473,16744446,31131,29447,16760285,15248,8276,Tag0,unknown
1.56761E+12,0,37,8.13E-06,100,34,36,52713,26594,8754,4722,16748361,19348,19444,7429,Tag0,unknown
1.56761E+12,0,44,9.67E-06,100,13,36,273342,28678,5544,21105,17592,16747007,7186,3047,Tag0,unknown
1.56761E+12,0,56,1.23E-05,100,43,36,58977,16545,14453,1174,2788,4512,2740,1666,Tag0,unknown
1.56761E+12,0,36,7.91E-06,77,40,36,16747706,16760937,16772632,18133,16763511,26359,6305,12346,Tag0,unknown
1.56761E+12,0,55,1.21E-05,78,44,36,13414,9143,2573,8539,6064,16745445,16040,4261,Tag0,unknown
1.56761E+12,0,84,1.85E-05,60,54,35,1695301,16750307,31586,10089,12083,31671,16747725,6100,Tag0,unknown
1.56761E+12,0,61,1.34E-05,80,37,35,16752542,16744715,2032,28513,18182,16768799,25241,7220,Tag0,unknown
1.56761E+12,0,55,1.21E-05,81,37,35,70887,22955,5914,30678,18600,17596,8029,6843,Tag0,unknown
1.56761E+12,0,20,4.39E-06,69,48,35,41521,16754181,17945,24110,19674,16769763,10339,12000,Tag0,unknown
1.56761E+12,0,-278,-6.11E-05,69,57,35,21357,19545,17689,21470,7027,23675,13818,11097,Tag0,unknown
1.56761E+12,0,71,1.56E-05,60,74,35,13881,19240,5628,16747172,26024,26201,11695,8224,Tag0,unknown
1.56761E+12,0,121,2.66E-05,44,75,35,370615,80212,12722,68328,22779,15374,12275,2827,Tag0,unknown
1.56761E+12,0,-280,-6.15E-05,16,69,35,1783292,83119,17135,11649,13144,10861,8838,4914,Tag0,unknown
1.56761E+12,0,90,1.98E-05,7,35,35,360045,151458,17755,14334,12735,16746209,31258,9864,Tag0,unknown
1.56761E+12,0,-338,-7.43E-05,8,23,35,542715,95001,27243,16747335,28255,69392,11299,5367,Tag0,unknown
1.56761E+12,0,28,6.15E-06,14,21,35,298459,13272,9944,5959,9415,5230,4457,928,Tag0,unknown
1.56761E+12,0,73,1.60E-05,35,23,35,16748583,16755635,16546,14970,16748452,29672,14000,11749,Tag0,unknown
1.56761E+12,0,-118,-2.59E-05,43,64,35,16753950,19643,16433,95443,5389,16763693,9172,17690,Tag0,unknown
1.56761E+12,0,38,8.35E-06,34,56,35,308423,28630,7677,3009,3933,8178,1421,1238,Tag0,unknown
1.56761E+12,0,115,2.53E-05,53,34,36,526808,16756075,14658,9092,19245,16761269,20181,17626,Tag0,unknown
1.56761E+12,0,19,4.17E-06,41,23,36,2167055,227369,16751610,15735,30794,16757214,18640,6512,Tag0,unknown
1.56761E+12,0,-284,-6.24E-05,35,1,36,100881,96032,16751727,20046,14407,16745647,14312,14344,Tag0,unknown
1.56761E+12,0,90,1.98E-05,38,13,36,113746,16770177,20939,16748249,24121,32412,16828,10585,Tag0,unknown
1.56761E+12,0,56,1.23E-05,23,35,36,327476,71118,16745021,16748033,14053,16747831,10693,11655,Tag0,unknown
1.56761E+12,0,-378,-8.31E-05,35,64,36,9169,24502,22301,19484,5052,26248,3617,13238,Tag0,unknown
1.56761E+12,0,42,9.23E-06,20,77,36,622981,133861,48914,20301,26419,26122,26449,15109,Tag0,unknown
1.56761E+12,0,22,4.83E-06,27,83,36,14534,9438,16744437,14832,24548,27157,11243,12441,Tag0,unknown
1.56761E+12,0,59,1.30E-05,34,75,36,9359,31351,15757,18542,32616,26646,11901,8388,Tag0,unknown
1.56761E+12,0,-314,-6.90E-05,34,67,36,80336,16745327,15517,26478,14680,26753,13414,4377,Tag0,unknown
1.56761E+12,0,-309,-6.79E-05,53,78,37,67029,18631,16770101,16746040,9143,16752354,16756224,3354,Tag0,unknown
1.56761E+12,0,89,1.96E-05,29,56,37,289202,204309,22052,16756217,16745454,24181,15982,11725,Tag0,unknown
1.56761E+12,0,82,1.80E-05,40,63,37,21262,15314,10856,16745453,23685,16758724,13657,4342,Tag0,unknown
1.56761E+12,0,50,1.10E-05,38,50,37,696589,19470,8476,2607,3395,9870,4410,1417,Tag0,unknown
1.56761E+12,0,27,5.93E-06,48,27,37,68947,16365,18273,14726,31663,16747949,19577,5381,Tag0,unknown
1.56761E+12,0,28,6.15E-06,66,20,37,16776771,25618,1214,2670,2605,8943,6779,1419,Tag0,unknown
1.56761E+12,0,27,5.93E-06,50,23,37,121437,66130,27397,31315,12806,31910,13674,5786,Tag0,unknown
1.56761E+12,0,3,6.59E-07,56,53,37,21532,3520,16761558,19454,11643,16745030,19947,2886,Tag0,unknown
1.56761E+12,0,-68,-1.49E-05,44,54,37,443336,30395,10658,11969,7525,17181,11421,11457,Tag0,unknown
1.56761E+12,0,104,2.29E-05,37,90,37,142416,16752337,16747014,16752087,19526,19319,8241,3816,Tag0,unknown
1.56761E+12,0,116,2.55E-05,37,100,37,9713,15893,29104,32400,17906,18754,12694,8703,Tag0,unknown
1.56761E+12,0,80,1.76E-05,26,91,37,70256,16754013,16295,16761007,20091,26957,4628,8766,Tag0,unknown
1.56761E+12,0,92,2.02E-05,26,97,37,216452,16755270,16753211,22179,25170,16747450,13410,3785,Tag0,unknown
1.56761E+12,0,99,2.18E-05,57,81,37,12942,7382,11019,18022,9199,16776728,20638,4484,Tag0,unknown
1.56761E+12,0,125,2.75E-05,57,81,37,12942,7382,11019,18022,9199,16776728,20638,4484,Tag0,unknown
1.56761E+12,0,71,1.56E-05,63,60,37,124313,16753002,12732,13870,17998,27558,17043,9266,Tag0,unknown
1.56761E+12,0,96,2.11E-05,48,48,37,16770875,16094,8354,2920,2974,9243,4191,2209,Tag0,unknown
1.56761E+12,0,60,1.32E-05,48,63,37,88240,8843,19456,10829,16954,14225,11894,2349,Tag0,unknown
1.56761E+12,0,97,2.13E-05,40,47,37,107064,16753474,13376,9973,5632,8832,5998,1819,Tag0,unknown
1.56761E+12,0,-275,-6.04E-05,24,50,37,728641,79926,16190,20255,23420,25189,16756419,28137,Tag0,unknown
1.56761E+12,0,120,2.64E-05,43,41,37,10839,17359,3340,13717,11062,16756768,16079,14906,Tag0,unknown
1.56761E+12,0,-259,-5.69E-05,54,40,37,9764,3449,16751948,9429,13542,16764915,22697,12855,Tag0,unknown
timestampMs,poorSignal,eegRawValue,eegRawValueVolts,attention,meditation,blinkStrength,delta,theta,alphaLow,alphaHigh,betaLow,betaHigh,gammaLow,gammaMid,tagEvent,location
1.56761E+12,25,-106,-2.33E-05,0,0,41,60,0,1,0,5,2,2,1,Tag0,unknown
1.56761E+12,25,-262,-5.76E-05,0,0,41,264006,56905,26279,7294,23972,18169,12948,6286,Tag0,unknown
1.56761E+12,0,-349,-7.67E-05,0,0,41,2259,16746763,3641,10387,16752440,12472,21364,5573,Tag0,unknown
1.56761E+12,0,53,1.16E-05,0,0,41,1921027,66174,16760453,25408,10816,16759915,13003,6461,Tag0,unknown
1.56761E+12,0,11,2.42E-06,0,0,41,13869,19200,7992,16603,19680,17477,3818,7163,Tag0,unknown
1.56761E+12,0,-269,-5.91E-05,54,37,34,16351,16753853,11126,7849,15558,29439,15634,10644,Tag0,unknown
1.56761E+12,0,66,1.45E-05,37,37,34,1037699,53870,24573,20015,23276,30145,21621,5200,Tag0,unknown
1.56761E+12,0,4,8.79E-07,37,50,34,16468,21600,19690,16697,21957,16661,18391,2584,Tag0,unknown
1.56761E+12,0,-300,-6.59E-05,60,53,34,13325,21559,12565,7514,12917,30459,11747,18440,Tag0,unknown
1.56761E+12,0,32,7.03E-06,40,64,34,2006807,94365,23485,16753833,10977,16759368,25689,6209,Tag0,unknown
1.56761E+12,0,122,2.68E-05,40,54,34,141167,15316,1170,641,1074,1596,3860,1163,Tag0,unknown
1.56761E+12,0,6,1.32E-06,64,34,34,13854,5576,7947,19813,16758505,96125,16755970,11683,Tag0,unknown
1.56761E+12,0,26,5.71E-06,30,50,34,157387,17433,14465,6761,3337,6621,5728,454,Tag0,unknown
1.56761E+12,0,35,7.69E-06,27,40,34,983816,46218,5037,16751370,30009,16744422,16744715,9288,Tag0,unknown
1.56761E+12,0,70,1.54E-05,51,48,34,123356,14015,2498,4998,7877,11219,4248,2344,Tag0,unknown
1.56761E+12,0,55,1.21E-05,44,54,34,82491,6840,9333,7628,29626,31010,24140,8988,Tag0,unknown
1.56761E+12,0,-259,-5.69E-05,60,51,34,9557,5888,18211,29918,28738,30685,27323,2688,Tag0,unknown
1.56761E+12,0,3,6.59E-07,60,34,34,93386,152617,8479,3016,27659,16750243,16897,25328,Tag0,unknown
1.56761E+12,0,34,7.47E-06,53,57,34,559466,30844,16758839,26110,14639,16747141,15147,7476,Tag0,unknown
1.56761E+12,0,34,7.47E-06,27,81,34,2829,22309,21913,20078,12482,12258,24038,8499,Tag0,unknown
1.56761E+12,0,67,1.47E-05,24,83,34,4874,10023,4297,26699,20120,17825,17147,8317,Tag0,unknown
1.56761E+12,0,98,2.15E-05,35,100,34,11675,15443,6530,28245,28951,26714,16673,1423,Tag0,unknown
1.56761E+12,0,8,1.76E-06,17,100,34,38366,16747215,11472,6145,3716,3708,3075,2863,Tag0,unknown
1.56761E+12,0,33,7.25E-06,35,93,34,1576,16947,7438,16050,12291,26953,17071,11012,Tag0,unknown
1.56761E+12,0,52,1.14E-05,53,78,34,9753,3801,5654,14443,25066,16755084,17805,12482,Tag0,unknown
1.56761E+12,0,-43,-9.45E-06,51,78,34,2053,11777,5234,11446,9897,12740,7545,4889,Tag0,unknown
1.56761E+12,0,83,1.82E-05,75,74,39,18253,15536,13802,3109,21240,19849,19116,3631,Tag0,unknown
1.56761E+12,0,36,7.91E-06,64,69,39,48982,15620,6891,2517,6398,7825,7824,1963,Tag0,unknown
1.56761E+12,0,83,1.82E-05,37,64,39,4860,16760346,4015,9418,19157,9334,20846,25664,Tag0,unknown
1.56761E+12,0,72,1.58E-05,40,61,39,3295,20101,6458,16037,8926,24352,16754776,4213,Tag0,unknown
1.56761E+12,0,68,1.49E-05,30,64,39,468,25658,6634,14229,16917,12876,9333,9401,Tag0,unknown
1.56761E+12,0,27,5.93E-06,21,63,39,659536,155453,31679,23623,28486,24918,21313,28524,Tag0,unknown
1.56761E+12,0,58,1.27E-05,30,78,39,20389,16754810,25751,23205,18279,16745967,10607,7696,Tag0,unknown
1.56761E+12,0,51,1.12E-05,27,81,39,4492,12210,18473,21388,16752930,20536,17310,6659,Tag0,unknown
1.56761E+12,0,81,1.78E-05,41,84,39,7615,9216,8860,16903,11275,30564,10303,3710,Tag0,unknown
1.56761E+12,0,49,1.08E-05,61,90,39,2257,11496,7699,12527,18970,24218,13202,6127,Tag0,unknown
1.56761E+12,0,42,9.23E-06,56,88,39,341487,16747844,9510,29321,22208,17108,29799,9182,Tag0,unknown
1.56761E+12,0,35,7.69E-06,66,81,39,7545,4291,10725,8001,32171,25531,21977,6656,Tag0,unknown
1.56761E+12,0,17,3.74E-06,60,83,39,986,14034,26839,7899,20296,23603,23508,2839,Tag0,unknown
1.56761E+12,0,82,1.80E-05,48,81,39,73555,16749290,3789,19047,17145,15031,7583,3905,Tag0,unknown
1.56761E+12,0,101,2.22E-05,54,84,39,9207,9322,11611,17254,19713,16324,16912,7323,Tag0,unknown
1.56761E+12,0,33,7.25E-06,38,70,39,116773,133641,8083,14381,16746463,16750886,15444,9973,Tag0,unknown
1.56761E+12,0,85,1.87E-05,37,80,39,3460,7884,28938,10677,12226,17270,10828,6508,Tag0,unknown
1.56761E+12,0,112,2.46E-05,34,66,39,16749632,47258,2957,17633,10084,25752,13628,3551,Tag0,unknown
1.56761E+12,0,68,1.49E-05,37,61,39,11213,15802,6702,15111,9296,25466,17435,21081,Tag0,unknown
1.56761E+12,0,42,9.23E-06,51,78,39,13910,9195,11276,9579,19414,27408,22743,13353,Tag0,unknown
1.56761E+12,0,117,2.57E-05,44,78,39,167448,18898,16767559,16755994,24906,24715,11934,6239,Tag0,unknown
1.56761E+12,0,27,5.93E-06,54,94,39,16771097,16928,7653,25605,23114,20825,28916,3641,Tag0,unknown
1.56761E+12,0,59,1.30E-05,53,96,39,205489,22962,22585,29182,12840,16760330,13962,5287,Tag0,unknown
1.56761E+12,0,38,8.35E-06,48,100,39,25172,15726,28545,30598,13055,16755862,21132,7672,Tag0,unknown
1.56761E+12,0,-277,-6.09E-05,38,84,39,474769,16764396,7426,15172,10309,7285,16546,11597,Tag0,unknown
1.56761E+12,0,104,2.29E-05,53,69,39,16755925,4012,2415,1191,6397,12609,7125,2631,Tag0,unknown
1.56761E+12,0,17,3.74E-06,48,66,39,5406,19867,31725,3608,16745339,21813,24582,5860,Tag0,unknown
1.56761E+12,0,39,8.57E-06,51,43,39,21401,16745096,4018,4975,5530,32621,15448,5625,Tag0,unknown
1.56761E+12,0,86,1.89E-05,61,61,39,16932,15992,16760121,19136,13419,20068,23975,2699,Tag0,unknown
1.56761E+12,0,96,2.11E-05,61,60,39,641691,66470,1204,16745528,16577,16756496,18509,5445,Tag0,unknown
1.56761E+12,0,112,2.46E-05,64,70,39,5043,20628,6556,24756,21209,16765630,9881,6189,Tag0,unknown
1.56761E+12,0,113,2.48E-05,70,66,39,1769,31185,27129,16769259,7992,16758394,28582,4046,Tag0,unknown
1.56761E+12,0,-59,-1.30E-05,57,60,39,422974,91710,2143,23006,16751999,16757345,15871,7743,Tag0,unknown
timestampMs,poorSignal,eegRawValue,eegRawValueVolts,attention,meditation,blinkStrength,delta,theta,alphaLow,alphaHigh,betaLow,betaHigh,gammaLow,gammaMid,tagEvent,location
1.56761E+12,0,51,1.12E-05,66,51,44,16745785,16748288,229,17569,16810,16744372,13995,7170,Tag0,unknown
1.56761E+12,0,1,2.20E-07,91,56,45,16746154,20455,12453,22864,24072,21199,16745238,3968,Tag0,unknown
1.56761E+12,0,56,1.23E-05,96,47,45,16770718,20450,9308,16865,17163,29583,11013,8545,Tag0,unknown
1.56761E+12,0,274,6.02E-05,91,43,45,86809,64367,9247,10866,15181,11502,13346,10966,Tag0,unknown
1.56761E+12,0,56,1.23E-05,91,43,35,86809,64367,9247,10866,15181,11502,13346,10966,Tag0,unknown
1.56761E+12,0,51,1.12E-05,80,37,35,156457,16745087,3866,2635,11374,10310,8435,2425,Tag0,unknown
1.56761E+12,0,20,4.39E-06,64,23,42,487710,91856,10050,14395,16755497,16497,25068,7887,Tag0,unknown
1.56761E+12,0,64,1.41E-05,48,26,42,150006,16747559,15404,20445,17754,16095,9369,4310,Tag0,unknown
1.56761E+12,0,91,2.00E-05,70,35,42,602492,30459,7614,9892,23540,15099,16285,4907,Tag0,unknown
1.56761E+12,0,-79,-1.74E-05,78,51,42,731031,16746719,30772,11324,7628,31120,7326,26949,Tag0,unknown
1.56761E+12,0,-177,-3.89E-05,97,57,42,27290,16752725,15479,17050,16760661,16749320,9119,4260,Tag0,unknown
1.56761E+12,0,20,4.39E-06,100,56,42,836097,16745805,31649,7699,20452,16746114,15543,6608,Tag0,unknown
1.56761E+12,0,18,3.96E-06,100,51,42,16770513,13315,2833,1218,6236,10096,2689,1389,Tag0,unknown
1.56761E+12,0,13,2.86E-06,100,47,42,143906,15781,5726,3584,3076,6003,8830,2765,Tag0,unknown
1.56761E+12,0,-116,-2.55E-05,100,43,42,1636,8939,1899,7843,11264,32225,14181,3695,Tag0,unknown
1.56761E+12,0,37,8.13E-06,88,26,42,1374602,218015,21276,6734,17324,16749350,20535,7526,Tag0,unknown
1.56761E+12,0,86,1.89E-05,64,34,42,389805,37426,31289,6734,16293,27160,29602,6796,Tag0,unknown
1.56761E+12,0,101,2.22E-05,66,29,42,16770128,29087,5631,12037,7334,26297,15875,5716,Tag0,unknown
1.56761E+12,0,41,9.01E-06,48,29,42,47928,29639,7311,2228,4231,13757,11081,1009,Tag0,unknown
1.56761E+12,0,-120,-2.64E-05,67,44,42,1711,7039,9460,11063,30156,20997,16754620,8772,Tag0,unknown
1.56761E+12,0,91,2.00E-05,61,34,42,201612,16754490,702,3954,2094,5178,6601,2266,Tag0,unknown
1.56761E+12,0,52,1.14E-05,56,43,42,16754202,17660,4902,25561,8044,16165,32375,3406,Tag0,unknown
1.56761E+12,0,36,7.91E-06,57,63,42,4836,7706,23026,23579,9284,21126,16755058,6031,Tag0,unknown
1.56761E+12,0,76,1.67E-05,35,81,42,14121,16746071,31372,60352,15050,18661,11285,5267,Tag0,unknown
1.56761E+12,0,107,2.35E-05,41,100,42,16775105,16762406,16752165,23177,9869,22483,16726,6054,Tag0,unknown
1.56761E+12,0,-277,-6.09E-05,34,100,42,21781,11836,7770,16764939,9433,12626,10791,4485,Tag0,unknown
1.56761E+12,0,20,4.39E-06,14,100,42,2616,13020,6868,59548,17194,10601,13277,7125,Tag0,unknown
1.56761E+12,0,-277,-6.09E-05,23,100,42,627350,16764294,3837,16772134,20441,26863,17493,2751,Tag0,unknown
1.56761E+12,0,50,1.10E-05,47,96,42,17551,5196,11683,20485,3375,16764997,23170,3889,Tag0,unknown
1.56761E+12,0,27,5.93E-06,53,87,42,514335,15281,16760884,10522,15799,27278,27703,2494,Tag0,unknown
1.56761E+12,0,89,1.96E-05,80,64,42,3318,10549,8305,7935,26218,19203,25552,10057,Tag0,unknown
1.56761E+12,0,2,4.39E-07,97,53,42,23274,32105,10968,16404,29038,65898,16746509,8075,Tag0,unknown
1.56761E+12,0,45,9.89E-06,87,44,42,184343,16776946,12620,11095,12524,16754362,20545,12084,Tag0,unknown
1.56761E+12,0,52,1.14E-05,100,24,42,20237,14134,1200,9853,5893,78112,16888,4195,Tag0,unknown
1.56761E+12,0,10,2.20E-06,94,21,42,216467,16755873,5826,17716,28761,27788,26110,4369,Tag0,unknown
1.56761E+12,0,43,9.45E-06,94,20,42,2740,9039,12656,3155,17554,16766883,17003,4664,Tag0,unknown
1.56761E+12,0,-273,-6.00E-05,100,17,42,5754,15230,6200,5676,15418,16760930,29099,19745,Tag0,unknown
1.56761E+12,0,26,5.71E-06,96,23,42,2731,20735,12170,7200,9798,16763685,24376,11525,Tag0,unknown
1.56761E+12,0,-127,-2.79E-05,96,20,42,396726,79644,6530,12552,11900,16745026,11323,23200,Tag0,unknown
1.56761E+12,0,89,1.96E-05,100,13,42,11544,4010,729,5467,12802,16753665,19241,9765,Tag0,unknown
1.56761E+12,0,51,1.12E-05,77,26,42,16772185,16774675,21795,66327,16762851,31034,28866,31359,Tag0,unknown
1.56761E+12,0,39,8.57E-06,48,34,42,68835,16754532,16563,7374,4189,6396,3402,2003,Tag0,unknown
1.56761E+12,0,19,4.17E-06,57,38,39,7735,11348,6583,12885,23892,16748980,11500,16594,Tag0,unknown
1.56761E+12,0,107,2.35E-05,29,56,39,39720,16272,5688,10145,2882,5846,7856,1874,Tag0,unknown
1.56761E+12,0,76,1.67E-05,43,53,39,647362,16748574,16757137,15445,13351,85505,16763416,7583,Tag0,unknown
1.56761E+12,0,120,2.64E-05,67,48,39,16768932,17057,14830,3535,12328,16762879,22168,7141,Tag0,unknown
1.56761E+12,0,73,1.60E-05,66,37,39,6397,14431,1817,7229,73637,21215,16755965,15263,Tag0,unknown
1.56761E+12,0,27,5.93E-06,69,34,39,39376,47964,16761963,27528,10074,16760598,13293,16745458,Tag0,unknown
1.56761E+12,0,21,4.61E-06,60,24,39,1919954,149823,16214,30438,20233,67175,15661,79872,Tag0,unknown
1.56761E+12,0,44,9.67E-06,67,11,39,20172,14013,3135,3218,17331,72322,16754166,9775,Tag0,unknown
1.56761E+12,0,-147,-3.23E-05,67,26,39,16763787,9970,20208,10385,16748336,16751483,18426,17648,Tag0,unknown
1.56761E+12,0,10,2.20E-06,67,27,39,1554134,30866,26846,2707,7911,14921,3617,3172,Tag0,unknown
1.56761E+12,0,25,5.49E-06,67,21,39,46784,25768,1755,2964,21266,10585,5479,3548,Tag0,unknown
1.56761E+12,0,-261,-5.73E-05,54,27,39,81550,17160,886,3717,6810,15753,5239,2885,Tag0,unknown
1.56761E+12,0,37,8.13E-06,51,26,39,73983,16763109,32496,17485,15428,73464,24356,10922,Tag0,unknown
1.56761E+12,0,40,8.79E-06,61,23,39,14035,15473,12191,22592,16753374,16745203,16757708,6306,Tag0,unknown
1.56761E+12,0,-259,-5.69E-05,69,40,39,7534,18119,1432,30032,9381,16752658,25365,8715,Tag0,unknown
1.56761E+12,0,54,1.19E-05,56,44,39,303672,133055,29135,10984,17855,30253,16755832,8567,Tag0,unknown
1.56761E+12,0,-263,-5.78E-05,50,27,39,72697,27831,1605,680,2611,9493,6754,6900,Tag0,unknown
timestampMs,poorSignal,eegRawValue,eegRawValueVolts,attention,meditation,blinkStrength,delta,theta,alphaLow,alphaHigh,betaLow,betaHigh,gammaLow,gammaMid,tagEvent,location
1.56761E+12,0,58,1.27E-05,0,0,87,208662,41805,12734,6655,9321,8684,5956,6337,Tag0,unknown
1.56761E+12,0,2,4.39E-07,0,0,39,59372,64177,26206,11068,14128,22814,22582,10213,Tag0,unknown
1.56761E+12,0,28,6.15E-06,0,0,39,360101,145800,16747010,16754107,22074,16746824,23741,12823,Tag0,unknown
1.56761E+12,0,-58,-1.27E-05,53,48,37,379180,77537,30091,12035,30289,16747021,16754541,14453,Tag0,unknown
1.56761E+12,0,17,3.74E-06,66,44,37,1172830,16757045,9309,3508,8063,15821,4519,2637,Tag0,unknown
1.56761E+12,0,64,1.41E-05,87,56,38,16761912,16754067,12481,21913,19195,16748194,13055,2047,Tag0,unknown
1.56761E+12,0,-279,-6.13E-05,100,80,38,192040,30801,16755099,13061,27284,31962,28475,67512,Tag0,unknown
1.56761E+12,0,7,1.54E-06,100,75,38,483122,16759510,18561,7544,18587,16752917,11722,19508,Tag0,unknown
1.56761E+12,0,-126,-2.77E-05,100,84,38,543190,40295,16746229,21222,16759739,16768499,32178,16333,Tag0,unknown
1.56761E+12,0,-64,-1.41E-05,100,84,39,64548,15350,5681,4177,1206,10294,8735,1140,Tag0,unknown
1.56761E+12,0,70,1.54E-05,97,84,56,1730214,345786,88231,265419,26051,80344,16772264,19421,Tag0,unknown
1.56761E+12,0,82,1.80E-05,93,91,56,767223,26431,17361,3288,11206,19316,6891,3112,Tag0,unknown
1.56761E+12,0,52,1.14E-05,100,84,56,482714,96804,16753567,8141,11918,96787,22591,6576,Tag0,unknown
1.56761E+12,0,80,1.76E-05,100,64,44,79887,24845,12030,9856,9240,91743,24235,11440,Tag0,unknown
1.56761E+12,0,-295,-6.48E-05,100,24,44,395650,142345,13092,6815,16333,16746862,14310,16605,Tag0,unknown
1.56761E+12,0,48,1.05E-05,100,3,44,135412,16748765,9104,4471,28911,16746271,15473,9538,Tag0,unknown
1.56761E+12,0,20,4.39E-06,90,13,44,15223,17971,3523,25114,21607,29237,26925,26432,Tag0,unknown
1.56761E+12,0,-315,-6.92E-05,77,35,44,1892980,23480,26740,17212,31542,16752217,9626,9844,Tag0,unknown
1.56761E+12,0,6,1.32E-06,80,50,34,511061,138727,25487,26508,17683,16772869,13944,4577,Tag0,unknown
1.56761E+12,0,53,1.16E-05,57,54,34,2731281,420707,16766493,16746674,16651,16757081,16751239,15560,Tag0,unknown
1.56761E+12,0,69,1.52E-05,67,40,34,596125,30813,13013,16601,13407,38754,27956,10169,Tag0,unknown
1.56761E+12,0,-313,-6.88E-05,64,16,34,77055,16748859,5301,3016,5735,17691,13884,3518,Tag0,unknown
1.56761E+12,0,51,1.12E-05,74,8,34,16759109,11524,1511,2133,3739,11239,4473,1813,Tag0,unknown
1.56761E+12,0,41,9.01E-06,74,24,34,37938,16766017,21263,7014,2270,7650,4321,3424,Tag0,unknown
1.56761E+12,0,0,0,50,13,34,219809,16772902,6449,1464,2312,11559,14411,3434,Tag0,unknown
1.56761E+12,0,37,8.13E-06,60,14,34,515472,16756921,5011,15929,19130,65545,16750342,22616,Tag0,unknown
1.56761E+12,0,97,2.13E-05,63,11,34,16200,26063,5205,4738,14919,16744404,17801,9445,Tag0,unknown
1.56761E+12,0,-108,-2.37E-05,90,1,34,78168,26176,15359,15127,26679,72178,16747348,13229,Tag0,unknown
1.56761E+12,0,28,6.15E-06,87,11,34,1130193,263006,19613,16753165,16756853,16746239,16753656,30618,Tag0,unknown
1.56761E+12,0,58,1.27E-05,63,24,34,108749,85934,14557,26111,16753167,14599,15629,10803,Tag0,unknown
1.56761E+12,0,-58,-1.27E-05,63,24,34,7751,29427,3490,13466,16772775,16752572,16752082,17928,Tag0,unknown
1.56761E+12,0,76,1.67E-05,43,35,34,109829,9109,3289,2123,1114,2926,2832,777,Tag0,unknown
1.56761E+12,0,38,8.35E-06,53,23,34,1383056,153357,7867,4341,10735,16762771,26583,7267,Tag0,unknown
1.56761E+12,0,50,1.10E-05,70,24,34,10458,22275,11944,8683,29114,28810,27941,12875,Tag0,unknown
1.56761E+12,0,-293,-6.44E-05,70,47,34,15926,18483,889,27986,16754648,16749102,24558,18180,Tag0,unknown
1.56761E+12,0,-64,-1.41E-05,74,23,34,168762,16755787,673,4423,5979,11520,7235,2166,Tag0,unknown
1.56761E+12,0,75,1.65E-05,90,38,34,16744469,16137,8219,7720,16752335,16761279,18606,12767,Tag0,unknown
1.56761E+12,0,7,1.54E-06,88,47,34,157184,16763412,30506,16753240,11037,79815,17635,13605,Tag0,unknown
1.56761E+12,0,-316,-6.94E-05,67,34,40,399414,280184,16766,25412,18993,16752585,16752908,19670,Tag0,unknown
1.56761E+12,0,-64,-1.41E-05,60,38,40,1400505,192610,18094,17985,19504,27499,31513,16748672,Tag0,unknown
1.56761E+12,0,-263,-5.78E-05,44,44,40,1120494,35888,16136,19336,15100,16760855,16754699,20684,Tag0,unknown
1.56761E+12,0,90,1.98E-05,30,35,40,1119429,102978,16745552,30776,16745298,16751944,8980,9828,Tag0,unknown
1.56761E+12,0,-404,-8.88E-05,23,24,40,351178,63034,5451,3738,5734,8674,13443,4443,Tag0,unknown
1.56761E+12,0,43,9.45E-06,37,14,40,136905,120329,10968,5193,25266,16773439,20312,10676,Tag0,unknown
1.56761E+12,0,88,1.93E-05,27,24,39,118396,163245,16745004,16766185,7737,16756224,17443,8382,Tag0,unknown
1.56761E+12,0,107,2.35E-05,29,24,39,1916654,129620,4610,69192,25650,16769848,16756395,24876,Tag0,unknown
1.56761E+12,0,-274,-6.02E-05,26,40,39,139946,16761341,6658,2004,739,2599,3230,816,Tag0,unknown
1.56761E+12,0,124,2.72E-05,26,67,39,254118,16756737,18211,17800,26557,24829,27050,21118,Tag0,unknown
1.56761E+12,0,90,1.98E-05,34,54,39,227204,118194,16744744,13989,16745994,74952,30123,16309,Tag0,unknown
1.56761E+12,0,-280,-6.15E-05,41,57,39,40356,77699,16749790,15835,13811,16776075,17423,11951,Tag0,unknown
1.56761E+12,0,75,1.65E-05,81,64,39,492,2606,4270,10623,20037,16751241,16751519,15181,Tag0,unknown
1.56761E+12,0,72,1.58E-05,77,54,44,66196,19616,3450,4423,11954,6428,3508,3174,Tag0,unknown
1.56761E+12,0,12,2.64E-06,80,38,44,696741,69713,211,6102,16349,16749909,18144,5117,Tag0,unknown
1.56761E+12,0,98,2.15E-05,74,40,44,123323,16749984,25373,13472,16754698,21136,19004,13697,Tag0,unknown
1.56761E+12,0,-314,-6.90E-05,74,47,44,92431,3222,2343,11476,5758,16747750,22073,6614,Tag0,unknown
1.56761E+12,0,70,1.54E-05,91,41,44,3937,12210,5398,4822,24322,16744804,18929,15121,Tag0,unknown
1.56761E+12,0,51,1.12E-05,88,83,44,27744,19780,16759068,16749944,15829,31063,15726,10297,Tag0,unknown
1.56761E+12,0,16,3.52E-06,94,84,44,7774,13823,8683,16744544,18834,32287,12371,4771,Tag0,unknown
1.56761E+12,0,83,1.82E-05,63,64,39,143366,40037,8250,3898,4389,10629,6432,2655,Tag0,unknown
timestampMs,poorSignal,eegRawValue,eegRawValueVolts,attention,meditation,blinkStrength,delta,theta,alphaLow,alphaHigh,betaLow,betaHigh,gammaLow,gammaMid,tagEvent,location
1.56761E+12,25,22,4.83E-06,0,0,86,61,7,2,1,0,3,2,1,Tag0,unknown
1.56761E+12,25,-295,-6.48E-05,0,0,86,1923914,545240,16769175,16772283,16756404,74950,16768256,28691,Tag0,unknown
1.56761E+12,0,-125,-2.75E-05,0,0,86,496919,132703,16753024,10244,16766030,67592,11469,6019,Tag0,unknown
1.56761E+12,0,45,9.89E-06,0,0,86,383978,16765897,5245,10159,11588,27385,24979,12072,Tag0,unknown
1.56761E+12,0,28,6.15E-06,0,0,37,16756348,16775536,17045,12121,13459,38618,17577,13486,Tag0,unknown
1.56761E+12,0,84,1.85E-05,50,30,37,52021,16775250,9786,12133,18317,85186,18942,8076,Tag0,unknown
1.56761E+12,0,89,1.96E-05,30,54,37,658769,62691,24481,30049,12218,16753882,23636,11369,Tag0,unknown
1.56761E+12,0,21,4.61E-06,43,78,37,2487,10649,14566,12075,8494,16750983,16746251,14043,Tag0,unknown
1.56761E+12,0,71,1.56E-05,56,75,37,13594,18126,1835,10827,8530,16751747,24049,8550,Tag0,unknown
1.56761E+12,0,41,9.01E-06,48,84,37,14700,16766324,1108,27891,24637,16765048,17614,10314,Tag0,unknown
1.56761E+12,0,-258,-5.67E-05,48,84,37,442143,52255,71026,16749807,6730,30439,16746310,20072,Tag0,unknown
1.56761E+12,0,-323,-7.10E-05,23,57,41,117408,20381,3020,4016,8359,4695,8343,3013,Tag0,unknown
1.56761E+12,0,66,1.45E-05,1,81,41,391179,33123,16753455,16755384,21607,21259,15906,21856,Tag0,unknown
1.56761E+12,0,91,2.00E-05,1,69,41,69759,13581,1806,4222,4290,15623,7416,2248,Tag0,unknown
1.56761E+12,0,59,1.30E-05,10,43,41,2517223,139041,12537,24789,10939,16749323,16752669,27111,Tag0,unknown
1.56761E+12,0,40,8.79E-06,7,64,41,88558,13026,7365,2080,1387,1372,1773,1545,Tag0,unknown
1.56761E+12,0,21,4.61E-06,24,53,41,1241949,150020,16774115,16150,16358,16769484,16757159,20446,Tag0,unknown
1.56761E+12,0,-357,-7.84E-05,37,48,41,16746957,8225,5495,5879,16762421,16748532,28997,6086,Tag0,unknown
1.56761E+12,0,-87,-1.91E-05,41,64,41,2108314,49717,69676,16103,28574,16751080,30708,25812,Tag0,unknown
1.56761E+12,0,-259,-5.69E-05,57,54,41,730760,117395,95010,11096,28176,70023,16757524,17228,Tag0,unknown
1.56761E+12,0,32,7.03E-06,66,48,41,16750291,71673,16755845,13725,74642,66810,25163,11526,Tag0,unknown
1.56761E+12,0,65,1.43E-05,61,70,41,2458,6516,18019,7097,21144,16750240,31382,6458,Tag0,unknown
1.56761E+12,0,21,4.61E-06,66,60,41,16747450,16775126,11905,17861,15884,28229,16745856,16758011,Tag0,unknown
1.56761E+12,0,32,7.03E-06,69,34,41,1658200,211887,28723,7594,31048,88038,16746387,16761293,Tag0,unknown
1.56761E+12,0,5,1.10E-06,44,16,41,1493197,259988,21457,24503,28873,25022,16750358,16751477,Tag0,unknown
1.56761E+12,0,-263,-5.78E-05,30,11,38,291873,32469,4914,11472,11309,20008,5865,4247,Tag0,unknown
1.56761E+12,0,-100,-2.20E-05,29,24,36,224569,10047,4358,4053,1253,5151,1333,751,Tag0,unknown
1.56761E+12,0,80,1.76E-05,43,43,36,12129,17574,6784,25651,16767527,16763509,16749511,11880,Tag0,unknown
1.56761E+12,0,-107,-2.35E-05,75,50,36,16759456,16744691,7012,9065,14064,16756963,30039,23290,Tag0,unknown
1.56761E+12,0,-15,-3.30E-06,63,70,36,502751,28555,17528,31810,4388,10839,7513,2622,Tag0,unknown
1.56761E+12,0,-149,-3.27E-05,56,50,36,248127,16750433,3943,7744,7652,8256,5042,5120,Tag0,unknown
1.56761E+12,0,-334,-7.34E-05,43,56,46,862627,16764275,29188,19658,10049,31064,7891,3181,Tag0,unknown
1.56761E+12,0,86,1.89E-05,35,48,46,608818,26484,2555,2792,4650,13748,16149,6884,Tag0,unknown
1.56761E+12,0,56,1.23E-05,40,30,46,67620,119379,39405,13855,12976,67402,31489,17188,Tag0,unknown
1.56761E+12,0,101,2.22E-05,35,20,46,826312,396686,19097,16763311,153374,16766845,28185,10038,Tag0,unknown
1.56761E+12,0,-273,-6.00E-05,35,16,46,1357830,60954,16754605,16756588,24051,70892,26089,11001,Tag0,unknown
1.56761E+12,0,70,1.54E-05,41,24,46,383348,16762832,18694,8836,22538,16766529,16766960,15996,Tag0,unknown
1.56761E+12,0,-78,-1.71E-05,35,1,46,283034,291929,10006,19780,17191,16750827,30502,16746295,Tag0,unknown
1.56761E+12,0,100,2.20E-05,48,23,46,147608,24431,13656,2403,2816,15180,8916,4249,Tag0,unknown
1.56761E+12,0,-281,-6.17E-05,56,1,46,498953,16772191,7431,6511,16752528,16757921,26673,7946,Tag0,unknown
1.56761E+12,0,34,7.47E-06,53,1,46,547703,25591,6723,1055,8609,18807,17564,4965,Tag0,unknown
1.56761E+12,0,59,1.30E-05,67,14,46,718222,82131,6605,31554,5377,16764498,16748763,16753428,Tag0,unknown
1.56761E+12,0,-276,-6.06E-05,67,1,46,796238,87078,12605,9147,22519,16755874,28891,6938,Tag0,unknown
1.56761E+12,0,-266,-5.84E-05,77,8,46,6096,16126,5690,7012,19268,16749541,69016,18911,Tag0,unknown
1.56761E+12,0,36,7.91E-06,78,14,46,418680,26227,7553,5152,5520,22657,8460,4696,Tag0,unknown
1.56761E+12,0,57,1.25E-05,87,13,46,606891,67131,22063,28510,25583,38539,28492,24867,Tag0,unknown
1.56761E+12,0,106,2.33E-05,100,20,46,188627,6144,1751,14990,32557,16769083,30371,4952,Tag0,unknown
1.56761E+12,0,96,2.11E-05,91,27,46,17140,16266,4711,13988,16749128,17373,18444,6591,Tag0,unknown
1.56761E+12,0,-322,-7.08E-05,81,48,46,118103,10172,13728,1828,4110,7040,3517,1717,Tag0,unknown
1.56761E+12,0,35,7.69E-06,80,30,46,315568,16759298,3035,2215,21151,16766078,19141,13635,Tag0,unknown
1.56761E+12,0,68,1.49E-05,70,37,46,4506,14584,7562,11911,16758929,16755916,16746484,13666,Tag0,unknown
1.56761E+12,0,81,1.78E-05,75,40,46,26639,32022,6264,12692,10135,16746047,27840,9975,Tag0,unknown
1.56761E+12,0,72,1.58E-05,90,29,46,2198,11959,7883,8578,10049,16744883,23737,6108,Tag0,unknown
1.56761E+12,0,59,1.30E-05,94,47,46,16748089,17376,12536,3804,16747895,16768201,26536,12453,Tag0,unknown
1.56761E+12,0,3,6.59E-07,78,64,46,165546,20046,17253,9532,1480,11202,18210,5185,Tag0,unknown
1.56761E+12,0,67,1.47E-05,66,60,46,510519,16774037,4408,11872,8756,18604,13362,4441,Tag0,unknown
1.56761E+12,0,-275,-6.04E-05,38,60,46,810371,161533,16755664,12967,28304,18397,25328,9844,Tag0,unknown
1.56761E+12,0,22,4.83E-06,24,77,46,126215,31418,16744812,20879,16305,16750790,16746207,19954,Tag0,unknown
1.56761E+12,0,121,2.66E-05,27,61,46,173856,23832,1979,8094,10942,11515,7006,3327,Tag0,unknown
timestampMs,poorSignal,eegRawValue,eegRawValueVolts,attention,meditation,blinkStrength,delta,theta,alphaLow,alphaHigh,betaLow,betaHigh,gammaLow,gammaMid,tagEvent,location
1.56761E+12,25,43,9.45E-06,0,0,34,3,1,0,0,0,1,0,0,Tag0,unknown
1.56761E+12,25,565,1.24E-04,0,0,34,88,4,1,0,2,2,1,1,Tag0,unknown
1.56761E+12,0,-337,-7.40E-05,0,0,34,80613,12662,7547,4146,890,3117,4367,3495,Tag0,unknown
1.56761E+12,0,-269,-5.91E-05,0,0,34,303906,16754585,23554,12033,6786,21817,14805,3645,Tag0,unknown
1.56761E+12,0,75,1.65E-05,0,0,34,112940,38679,5730,13375,11174,13149,9745,4388,Tag0,unknown
1.56761E+12,0,100,2.20E-05,48,37,34,719488,66967,14370,10740,28595,20644,25171,8537,Tag0,unknown
1.56761E+12,0,-258,-5.67E-05,67,34,34,269786,78628,8325,27805,16757525,16757250,90086,14623,Tag0,unknown
1.56761E+12,0,52,1.14E-05,56,20,37,1074722,401976,21742,28990,16760850,16744987,28563,19284,Tag0,unknown
1.56761E+12,0,-117,-2.57E-05,80,7,37,1239915,81649,3969,12007,28410,68518,30323,8445,Tag0,unknown
1.56761E+12,0,2,4.39E-07,56,11,52,1164469,90809,24184,5363,3267,8139,14047,4787,Tag0,unknown
1.56761E+12,0,28,6.15E-06,48,21,42,735196,16746490,16430,7363,2951,20110,14175,3473,Tag0,unknown
1.56761E+12,0,-323,-7.10E-05,61,44,39,135683,13073,3546,6086,2756,4195,3196,3614,Tag0,unknown
1.56761E+12,0,-257,-5.65E-05,40,57,39,51486,27171,7699,927,1237,6303,3453,733,Tag0,unknown
1.56761E+12,0,36,7.91E-06,35,53,39,16775320,16752359,8649,2338,3583,2601,2317,1027,Tag0,unknown
1.56761E+12,0,-372,-8.17E-05,29,40,39,52114,16770245,4779,7921,5299,15325,5294,3085,Tag0,unknown
1.56761E+12,0,109,2.40E-05,38,27,39,57086,16879,6363,1562,10288,7838,8605,2261,Tag0,unknown
1.56761E+12,0,-310,-6.81E-05,43,40,43,267839,28180,17758,4334,1479,12545,10407,2125,Tag0,unknown
1.56761E+12,0,53,1.16E-05,75,48,43,78064,25559,7267,11459,6275,15914,12400,2607,Tag0,unknown
1.56761E+12,0,6,1.32E-06,74,78,43,348223,6307,13651,10522,6274,6609,3704,5312,Tag0,unknown
1.56761E+12,0,65,1.43E-05,64,96,43,5961,19477,5449,16765539,16751037,14698,28577,5312,Tag0,unknown
1.56761E+12,0,115,2.53E-05,60,83,43,1308333,184010,16751814,30281,22434,16767945,25980,22668,Tag0,unknown
1.56761E+12,0,44,9.67E-06,44,78,43,1622066,300062,42677,16753511,16767352,81220,16764659,19700,Tag0,unknown
1.56761E+12,0,-119,-2.61E-05,41,50,39,16771307,20069,1799,2334,1867,3898,1325,1415,Tag0,unknown
1.56761E+12,0,-95,-2.09E-05,51,30,39,335049,16760823,6704,10704,1558,25695,6086,3133,Tag0,unknown
1.56761E+12,0,50,1.10E-05,60,23,40,173967,78101,6175,7487,8691,28272,20006,9968,Tag0,unknown
1.56761E+12,0,26,5.71E-06,84,24,40,14757,17124,18706,7957,20504,16750574,16757965,8721,Tag0,unknown
1.56761E+12,0,-70,-1.54E-05,93,23,40,41556,141105,26965,6998,27827,16766504,16752712,13438,Tag0,unknown
1.56761E+12,0,-70,-1.54E-05,93,27,40,16752506,16776965,21905,21294,19651,16759258,16752205,23171,Tag0,unknown
1.56761E+12,0,83,1.82E-05,100,34,40,283155,25896,1467,7540,10100,21922,14219,6159,Tag0,unknown
1.56761E+12,0,-260,-5.71E-05,100,11,40,77396,158077,11290,18605,16762628,152075,16765906,24367,Tag0,unknown
1.56761E+12,0,64,1.41E-05,88,11,40,178404,84275,8996,6834,5427,13175,9903,1801,Tag0,unknown
1.56761E+12,0,97,2.13E-05,81,1,40,275033,125991,24797,3444,21875,16772394,82377,7466,Tag0,unknown
1.56761E+12,0,-327,-7.19E-05,69,11,40,849674,16746266,19260,8144,2660,16540,17216,5580,Tag0,unknown
1.56761E+12,0,60,1.32E-05,69,10,40,201189,30740,1369,2661,4417,29269,8895,5628,Tag0,unknown
1.56761E+12,0,-294,-6.46E-05,97,14,40,16771166,20474,12080,11530,3604,82618,16746638,17125,Tag0,unknown
1.56761E+12,0,-283,-6.22E-05,94,30,40,119373,84573,25315,11398,10277,16754703,6185,2333,Tag0,unknown
1.56761E+12,0,-306,-6.72E-05,87,21,40,1153448,238330,91239,5429,14596,82924,16762938,28395,Tag0,unknown
1.56761E+12,0,50,1.10E-05,74,50,40,125591,7780,6743,3587,4108,10988,12143,6238,Tag0,unknown
1.56761E+12,0,-317,-6.97E-05,60,61,40,19742,8426,4341,16748391,16762105,16746051,16747537,12643,Tag0,unknown
1.56761E+12,0,91,2.00E-05,53,64,40,344534,16773357,27272,1721,6027,16471,11158,3875,Tag0,unknown
1.56761E+12,0,-265,-5.82E-05,51,47,40,505406,490284,18692,6572,30858,34077,16751682,20670,Tag0,unknown
1.56761E+12,0,-279,-6.13E-05,44,50,40,1064631,31267,16410,11613,2724,16768,6363,2773,Tag0,unknown
1.56761E+12,0,77,1.69E-05,24,40,40,837622,79135,9038,9792,7553,12355,8341,3962,Tag0,unknown
1.56761E+12,0,-270,-5.93E-05,29,38,40,1182785,97312,13276,25683,2844,16750062,8526,4528,Tag0,unknown
1.56761E+12,0,16,3.52E-06,27,57,40,687629,115019,16745735,17738,15321,16751391,28949,8043,Tag0,unknown
1.56761E+12,0,-21,-4.61E-06,20,30,40,656923,218976,7431,8524,7085,16747066,16147,4667,Tag0,unknown
1.56761E+12,0,-39,-8.57E-06,16,48,49,193438,27404,21736,3938,1377,5607,2500,2104,Tag0,unknown
1.56761E+12,0,21,4.61E-06,13,50,49,143056,9214,3188,1480,1661,2996,4198,1216,Tag0,unknown
1.56761E+12,0,40,8.79E-06,13,61,49,73163,16752628,21325,13110,6483,12429,18987,4532,Tag0,unknown
1.56761E+12,0,-42,-9.23E-06,13,80,49,329082,16768817,12779,6067,3513,11178,13002,6719,Tag0,unknown
1.56761E+12,0,69,1.52E-05,13,61,37,1224678,349167,26472,16744921,15115,16754214,16754884,7936,Tag0,unknown
1.56761E+12,0,57,1.25E-05,26,67,41,120172,75229,67796,16756165,15311,55803,26740,13661,Tag0,unknown
1.56761E+12,0,77,1.69E-05,37,66,41,617230,16762226,19254,16753418,16739,16752957,16748414,25306,Tag0,unknown
1.56761E+12,0,48,1.05E-05,53,66,41,53192,11798,949,6636,4745,12463,10128,1946,Tag0,unknown
1.56761E+12,0,38,8.35E-06,57,70,41,195801,77689,13580,8719,3123,15459,6785,4696,Tag0,unknown
1.56761E+12,0,-333,-7.32E-05,50,51,41,1652800,47820,10390,6210,12643,16752757,28506,27430,Tag0,unknown
1.56761E+12,0,60,1.32E-05,37,38,41,1122293,567611,16759152,82567,30648,84022,16751278,25778,Tag0,unknown
1.56761E+12,0,40,8.79E-06,14,35,41,299828,307454,16775436,16745014,12535,16759747,21902,13331,Tag0,unknown
1.56761E+12,0,98,2.15E-05,23,54,41,155257,20575,16763343,8605,3526,27938,9551,4327,Tag0,unknown
timestampMs,poorSignal,eegRawValue,eegRawValueVolts,attention,meditation,blinkStrength,delta,theta,alphaLow,alphaHigh,betaLow,betaHigh,gammaLow,gammaMid,tagEvent,location
1.56761E+12,25,7,1.54E-06,0,0,62,117,9,6,4,2,2,2,1,Tag0,unknown
1.56761E+12,25,16,3.52E-06,0,0,62,271952,16761470,2856,10468,3444,2814,2141,2924,Tag0,unknown
1.56761E+12,0,75,1.65E-05,0,0,62,73600,13072,5116,831,1794,5955,3570,1923,Tag0,unknown
1.56761E+12,0,-343,-7.54E-05,0,0,62,1292595,16746545,7776,2522,6737,8381,13503,1131,Tag0,unknown
1.56761E+12,0,82,1.80E-05,0,0,40,894255,586994,16744674,16753887,32122,91391,27073,12013,Tag0,unknown
1.56761E+12,0,88,1.93E-05,30,51,40,286165,95631,12663,19316,3277,11267,11037,5925,Tag0,unknown
1.56761E+12,0,-261,-5.73E-05,48,34,40,390097,207494,3942,5494,10116,89651,16758258,14481,Tag0,unknown
1.56761E+12,0,-313,-6.88E-05,51,38,40,1065466,71073,8659,4838,4754,14051,6805,10899,Tag0,unknown
1.56761E+12,0,-373,-8.20E-05,75,43,40,68241,28228,2060,6640,6452,23484,3328,6271,Tag0,unknown
1.56761E+12,0,12,2.64E-06,78,41,40,352713,77691,18155,5084,16004,11918,5895,9182,Tag0,unknown
1.56761E+12,0,-260,-5.71E-05,84,60,40,44748,44397,8695,15279,23863,86719,22010,8841,Tag0,unknown
1.56761E+12,0,66,1.45E-05,100,74,55,237890,21634,13477,6417,14046,19567,7285,1432,Tag0,unknown
1.56761E+12,0,6,1.32E-06,75,83,55,196787,49559,5753,16749952,11358,16446,28064,5547,Tag0,unknown
1.56761E+12,0,-126,-2.77E-05,75,84,55,204789,16764077,9872,5375,1713,7603,15277,4889,Tag0,unknown
1.56761E+12,0,86,1.89E-05,75,94,55,27920,16765631,2931,24352,16749035,16763250,16772956,28614,Tag0,unknown
1.56761E+12,0,58,1.27E-05,57,96,34,33048,97038,16752175,16748970,16763579,31035,16745014,6258,Tag0,unknown
1.56761E+12,0,-273,-6.00E-05,51,77,34,1863921,270332,7579,16178,16746608,21783,16748555,23362,Tag0,unknown
1.56761E+12,0,-276,-6.06E-05,61,87,34,25589,11027,15976,33805,10927,30191,16747749,21898,Tag0,unknown
1.56761E+12,0,39,8.57E-06,48,69,34,126503,131687,7338,12526,16746246,16759819,16745923,17399,Tag0,unknown
1.56761E+12,0,17,3.74E-06,54,61,34,140565,18953,16744764,27416,16745898,22275,26452,7410,Tag0,unknown
1.56761E+12,0,-324,-7.12E-05,61,75,34,817020,30996,10988,13967,13488,6103,8179,3193,Tag0,unknown
1.56761E+12,0,91,2.00E-05,56,54,34,388759,162576,26638,16746690,16892,16748525,28420,7661,Tag0,unknown
1.56761E+12,0,-276,-6.06E-05,54,75,34,16759985,16754952,16754783,19193,30954,27471,17828,5680,Tag0,unknown
1.56761E+12,0,18,3.96E-06,64,61,34,2352271,16765015,15607,9957,16749063,16749177,16745474,8156,Tag0,unknown
1.56761E+12,0,-267,-5.87E-05,74,51,34,133321,28700,1783,6237,15504,7374,3816,5827,Tag0,unknown
1.56761E+12,0,64,1.41E-05,91,54,34,24161,16751330,23120,24263,23140,16758807,14502,4029,Tag0,unknown
1.56761E+12,0,13,2.86E-06,90,50,34,175360,30761,12364,7236,6909,12499,5056,3249,Tag0,unknown
1.56761E+12,0,-125,-2.75E-05,87,53,34,57293,24173,1878,11303,3291,14603,7340,3696,Tag0,unknown
1.56761E+12,0,-109,-2.40E-05,87,74,34,26027,22919,15257,83427,20072,23885,24098,7213,Tag0,unknown
1.56761E+12,0,-257,-5.65E-05,64,90,34,23743,17095,8568,140828,31835,23068,15145,6170,Tag0,unknown
1.56761E+12,0,40,8.79E-06,67,88,34,41516,11857,3266,8438,11429,7336,4004,929,Tag0,unknown
1.56761E+12,0,88,1.93E-05,51,93,34,418710,44986,7190,16775259,12707,25118,16754465,13385,Tag0,unknown
1.56761E+12,0,-268,-5.89E-05,66,70,34,534564,19226,4278,5003,24431,14227,6639,1475,Tag0,unknown
1.56761E+12,0,40,8.79E-06,80,50,34,613074,280937,16761025,16748524,15674,42561,28255,25199,Tag0,unknown
1.56761E+12,0,40,8.79E-06,63,38,34,77944,22825,2561,572,855,2772,3195,1484,Tag0,unknown
1.56761E+12,0,91,2.00E-05,75,34,34,603379,16769387,9824,12329,7244,23088,12271,7437,Tag0,unknown
1.56761E+12,0,72,1.58E-05,77,34,34,1718303,338825,95501,6716,16775305,163841,16772836,23316,Tag0,unknown
1.56761E+12,0,-63,-1.38E-05,81,35,34,557587,16744724,1621,15630,13993,19311,25877,14118,Tag0,unknown
1.56761E+12,0,2,4.39E-07,81,40,34,381820,370560,34510,16366,16750471,16773299,16760923,18133,Tag0,unknown
1.56761E+12,0,20,4.39E-06,66,41,34,60229,29589,7310,2108,816,4511,3427,677,Tag0,unknown
1.56761E+12,0,-266,-5.84E-05,48,44,34,151716,21216,4986,1739,1965,4944,1910,1390,Tag0,unknown
1.56761E+12,0,28,6.15E-06,47,41,34,1840263,343429,16775410,20937,5481,147058,22653,18507,Tag0,unknown
1.56761E+12,0,102,2.24E-05,51,43,37,16765993,16749869,12556,466,2014,7640,3985,1564,Tag0,unknown
1.56761E+12,0,1,2.20E-07,47,47,37,185055,21665,4918,4959,936,3097,8352,441,Tag0,unknown
1.56761E+12,0,12,2.64E-06,48,53,38,581414,16765987,16747966,7411,7950,20176,18067,2761,Tag0,unknown
1.56761E+12,0,16,3.52E-06,37,53,38,912343,323384,16751937,16745091,16058,75604,80192,16603,Tag0,unknown
1.56761E+12,0,-284,-6.24E-05,50,48,39,16774431,22662,2526,2529,729,9167,5148,419,Tag0,unknown
1.56761E+12,0,6,1.32E-06,43,41,39,1236415,173435,24132,31252,7002,16439,16757061,11479,Tag0,unknown
1.56761E+12,0,-108,-2.37E-05,29,34,39,147267,16749804,6492,4076,3627,3984,7046,1686,Tag0,unknown
1.56761E+12,0,-263,-5.78E-05,29,50,39,1771661,16760899,29632,16754168,11717,18036,22151,10460,Tag0,unknown
1.56761E+12,0,108,2.37E-05,21,63,39,567696,16762715,28499,20444,14987,21280,22049,4780,Tag0,unknown
1.56761E+12,0,-261,-5.73E-05,29,51,39,16753538,16754904,1632,1292,643,5456,2739,934,Tag0,unknown
1.56761E+12,0,16,3.52E-06,57,51,39,1007279,43019,12564,16751822,28810,78619,84606,31671,Tag0,unknown
1.56761E+12,0,49,1.08E-05,77,48,36,610698,79215,83212,16772594,16767763,39592,21099,11732,Tag0,unknown
1.56761E+12,0,72,1.58E-05,88,44,36,1703945,25325,12611,12507,5597,22876,14515,4090,Tag0,unknown
1.56761E+12,0,-128,-2.81E-05,80,50,36,551686,561181,15180,16755242,19419,16754504,16768699,8175,Tag0,unknown
1.56761E+12,0,-301,-6.61E-05,70,44,36,379691,16755021,4445,4876,8413,15371,20598,2695,Tag0,unknown
1.56761E+12,0,-284,-6.24E-05,54,37,36,897680,500539,62137,71081,86078,53100,16756861,17484,Tag0,unknown
1.56761E+12,0,50,1.10E-05,41,30,36,324068,75940,10610,15849,8649,18767,20395,4223,Tag0,unknown
timestampMs,poorSignal,eegRawValue,eegRawValueVolts,attention,meditation,blinkStrength,delta,theta,alphaLow,alphaHigh,betaLow,betaHigh,gammaLow,gammaMid,tagEvent,location
1.56761E+12,25,4,8.79E-07,0,0,38,237976,87510,12596,6731,19915,10913,6878,4271,Tag0,unknown
1.56761E+12,0,-258,-5.67E-05,0,0,38,727966,140994,16753054,25382,14933,16773521,16769601,21942,Tag0,unknown
1.56761E+12,0,125,2.75E-05,0,0,38,241124,80063,14096,25434,88060,16758550,16766037,32108,Tag0,unknown
1.56761E+12,0,42,9.23E-06,0,0,38,507600,231216,82143,25222,31230,16748755,31901,7884,Tag0,unknown
1.56761E+12,0,97,2.13E-05,53,53,40,1673162,71628,16769958,16748082,29025,72191,78290,16884,Tag0,unknown
1.56761E+12,0,107,2.35E-05,56,74,40,1053735,16747811,22058,22991,13076,15714,12340,4369,Tag0,unknown
1.56761E+12,0,-273,-6.00E-05,69,61,39,840187,71315,9169,7518,16264,32396,15942,5599,Tag0,unknown
1.56761E+12,0,98,2.15E-05,75,60,39,156985,16761183,4418,12973,7968,15873,11041,449,Tag0,unknown
1.56761E+12,0,108,2.37E-05,57,53,39,302194,16775818,21893,9623,5688,12680,7768,4238,Tag0,unknown
1.56761E+12,0,18,3.96E-06,61,16,39,364269,16762535,5668,2771,8932,15246,7114,11011,Tag0,unknown
1.56761E+12,0,39,8.57E-06,57,41,39,381466,16765656,31385,11985,3778,28704,5709,13223,Tag0,unknown
1.56761E+12,0,82,1.80E-05,57,43,39,2391328,96066,16092,25514,29550,30711,16771106,7130,Tag0,unknown
1.56761E+12,0,-276,-6.06E-05,64,35,39,861548,99389,16762832,7657,26477,16757183,16753644,23644,Tag0,unknown
1.56761E+12,0,-334,-7.34E-05,54,57,39,289630,16769590,20839,8811,5736,11809,14999,3722,Tag0,unknown
1.56761E+12,0,-94,-2.07E-05,50,63,39,716850,150980,59650,16757666,31865,66650,16747885,13940,Tag0,unknown
1.56761E+12,0,-90,-1.98E-05,48,78,43,1306485,16761133,16746427,12051,20198,17946,9510,3458,Tag0,unknown
1.56761E+12,0,-79,-1.74E-05,47,87,43,1012684,65461,25183,11022,6593,18322,10535,2615,Tag0,unknown
1.56761E+12,0,-257,-5.65E-05,43,80,43,1417609,560541,111476,16761110,83267,91779,16772578,13193,Tag0,unknown
1.56761E+12,0,-124,-2.72E-05,38,66,43,494293,16768091,11742,14024,4932,15063,10110,4238,Tag0,unknown
1.56761E+12,0,102,2.24E-05,44,50,43,2563076,100946,16750851,28968,16758340,72674,16761488,6471,Tag0,unknown
1.56761E+12,0,97,2.13E-05,43,47,43,703012,147202,31857,16767746,16775552,16753762,16758913,22534,Tag0,unknown
1.56761E+12,0,85,1.87E-05,57,40,43,239359,16748516,5142,5204,2848,13323,10406,2249,Tag0,unknown
1.56761E+12,0,91,2.00E-05,67,24,39,16772023,16752341,5915,3875,6883,16496,6086,5020,Tag0,unknown
1.56761E+12,0,54,1.19E-05,83,13,39,8450,7550,6237,18371,66003,34548,16741,8020,Tag0,unknown
1.56761E+12,0,-326,-7.16E-05,81,23,39,786143,92457,16766311,12934,9657,16752717,9564,1648,Tag0,unknown
1.56761E+12,0,68,1.49E-05,70,14,39,1043243,231302,16748475,22125,30063,34352,16758022,27567,Tag0,unknown
1.56761E+12,0,23,5.05E-06,50,16,39,2121738,505921,71208,16752007,16770162,72414,16760681,5597,Tag0,unknown
1.56761E+12,0,-305,-6.70E-05,40,24,39,210741,19446,2870,12081,6494,16754093,19151,3439,Tag0,unknown
1.56761E+12,0,-279,-6.13E-05,40,1,39,1288590,47823,13213,13741,76177,16749488,15035,10874,Tag0,unknown
1.56761E+12,0,69,1.52E-05,43,34,39,1200630,19320,19306,17690,3200,21385,6740,3009,Tag0,unknown
1.56761E+12,0,20,4.39E-06,44,37,39,2269959,173188,30687,24727,19541,16746552,8067,12015,Tag0,unknown
1.56761E+12,0,-275,-6.04E-05,37,41,39,711802,131814,16752225,25668,22155,40120,47045,27549,Tag0,unknown
1.56761E+12,0,-259,-5.69E-05,51,47,39,3120,19552,7128,7784,28379,16759621,27253,21767,Tag0,unknown
1.56761E+12,0,-139,-3.05E-05,35,26,39,92866,16580,3894,1946,1210,1581,1589,412,Tag0,unknown
1.56761E+12,0,-317,-6.97E-05,27,30,38,443901,109589,16754246,3723,5257,14662,30359,5200,Tag0,unknown
